timestamps,TP9,AF7,AF8,TP10,Right AUX
1712565392.679,0,0,-0.488,-0.488,0
1712565392.682,0,0,-2.441,-0.488,0
1712565392.686,-32.227,-32.227,31.738,30.762,0
1712565392.69,69.824,60.059,-68.848,-68.359,0
1712565392.694,-334.473,-328.613,347.168,389.16,0
1712565392.698,-1000,-1000,967.285,938.477,0
1712565392.702,-273.438,-546.387,930.664,-839.355,0
1712565392.706,-804.688,-965.332,916.504,139.648,0
1712565392.709,270.508,366.699,929.199,-206.055,0
1712565392.713,-998.047,-993.164,918.457,-964.844,0
1712565392.717,-1000,-1000,914.551,936.035,0
1712565392.721,-250,-847.656,915.039,-885.254,0
1712565392.724,-829.102,636.719,910.645,-201.172,0
1712565392.727,212.891,463.867,892.09,-563.965,0
1712565392.731,-1000,-1000,869.141,941.895,0
1712565392.735,-1000,-985.84,861.816,-950.195,0
1712565392.739,-517.578,-1000,866.211,802.734,0
1712565392.742,997.559,147.461,850.586,-477.051,0
1712565392.746,216.309,423.34,793.945,-1000,0
1712565392.75,-1000,-1000,731.445,-161.621,0
1712565392.754,-975.586,-972.168,681.152,-826.66,0
1712565392.758,-1000,-1000,664.551,471.68,0
1712565392.761,398.438,-296.387,665.527,-874.512,0
1712565392.765,468.262,226.562,609.863,-1000,0
1712565392.766,-1000,-970.215,490.234,-511.719,0
1712565392.77,-941.406,-1000,422.852,-957.52,0
1712565392.773,-1000,-1000,467.285,223.145,0
1712565392.777,-91.797,-820.312,481.934,-1000,0
1712565392.781,259.766,-639.16,413.086,-905.762,0
1712565392.784,-1000,-1000,292.969,-1000,0
1712565392.788,-941.895,-994.629,224.121,-101.562,0
1712565392.791,-1000,-1000,284.668,250,0
1712565392.795,-87.402,-883.789,287.109,-1000,0
1712565392.799,379.395,-633.789,277.832,-939.453,0
1712565392.802,-1000,-949.707,26.367,-1000,0
1712565392.806,-957.52,-992.188,-316.895,-451.172,0
1712565392.806,-1000,-1000,-305.176,58.105,0
1712565392.809,-206.055,-814.453,-153.32,-1000,0
1712565392.813,995.605,87.402,-74.219,-956.543,0
1712565392.816,-448.242,-479.004,-268.555,-1000,0
1712565392.82,-1000,-1000,-514.16,-363.281,0
1712565392.823,-1000,-1000,-429.688,260.742,0
1712565392.827,-279.297,-700.195,-161.621,-997.07,0
1712565392.831,-831.543,822.266,-110.84,-974.121,0
1712565392.834,44.922,166.016,-428.711,-1000,0
1712565392.838,-1000,-1000,-562.988,-183.105,0
1712565392.841,-1000,-1000,-491.211,804.199,0
1712565392.845,-265.137,-541.992,-423.34,-701.172,0
1712565392.844,-824.707,-996.094,-357.422,-1000,0
1712565392.848,171.875,393.066,-424.805,-1000,0
1712565392.851,-1000,-958.496,-552.246,-296.387,0
1712565392.855,-1000,-1000,-530.762,-821.289,0
1712565392.858,-236.328,-410.156,-458.496,182.129,0
1712565392.862,-943.359,959.961,-330.078,-1000,0
1712565392.865,917.969,904.785,-252.93,-1000,0
1712565392.869,-422.363,-355.957,-459.961,-90.82,0
1712565392.872,-1000,-1000,-566.406,-874.023,0
1712565392.876,66.406,-260.254,-398.926,799.805,0
1712565392.879,-983.887,939.941,-259.766,-737.305,0
1712565392.883,-925.781,-898.438,-367.188,-870.117,0
1712565392.883,222.656,215.332,-543.457,708.984,0
1712565392.887,-1000,-1000,-527.832,984.863,0
1712565392.89,-14.648,-294.922,-447.266,-917.969,0
1712565392.893,-951.172,964.844,-355.469,20.508,0
1712565392.897,-940.43,-909.668,-397.949,-995.117,0
1712565392.9,238.281,245.117,-526.367,515.137,0
1712565392.904,-1000,-1000,-557.617,-942.383,0
1712565392.907,-205.078,-703.613,-523.926,-986.816,0
1712565392.91,-990.723,653.809,-469.238,38.574,0
1712565392.914,-930.176,-842.773,-476.074,-1000,0
1712565392.917,167.969,47.363,-613.281,-221.68,0
1712565392.921,-1000,-1000,-666.992,-912.109,0
1712565392.924,-921.875,-1000,-583.496,859.375,0
1712565392.928,530.762,-57.129,-541.504,-483.887,0
1712565392.931,-963.379,-875.488,-580.566,-1000,0
1712565392.935,-492.188,-168.945,-681.641,-1000,0
1712565392.938,-1000,-1000,-714.355,405.762,0
1712565392.941,-1000,-1000,-624.512,372.559,0
1712565392.945,-181.152,-496.094,-603.027,-1000,0
1712565392.948,987.305,822.754,-616.211,-914.062,0
1712565392.952,-471.68,-231.934,-653.809,-1000,0
1712565392.955,-1000,-1000,-710.938,-332.031,0
1712565392.958,-1000,-1000,-709.961,158.691,0
1712565392.962,-248.047,-786.133,-652.832,-1000,0
1712565392.966,-881.836,456.055,-628.906,-980.469,0
1712565392.969,-213.867,-137.695,-691.895,-1000,0
1712565392.973,-1000,-1000,-769.043,-783.203,0
1712565392.976,-1000,-1000,-707.031,-279.785,0
1712565392.98,-282.715,-833.496,-607.91,-953.125,0
1712565392.983,-829.102,640.137,-580.078,-989.258,0
1712565392.986,96.191,201.172,-660.645,-1000,0
1712565392.99,-1000,-1000,-753.906,-763.672,0
1712565392.993,-1000,-1000,-641.113,164.551,0
1712565392.997,-261.23,-801.27,-563.965,-754.395,0
1712565393,-825.195,723.633,-615.723,-1000,0
1712565393.004,166.992,366.699,-641.602,-1000,0
1712565393.008,-1000,-1000,-711.914,-850.586,0
1712565393.012,-1000,-1000,-702.148,495.117,0
1712565393.015,-354.492,-841.797,-619.141,-333.008,0
1712565393.019,-857.422,627.441,-567.871,-1000,0
1712565393.022,288.574,632.812,-591.309,-1000,0
1712565393.025,-994.629,-840.332,-668.457,-546.875,0
1712565393.029,-1000,-1000,-670.41,987.793,0
1712565393.032,-436.035,-859.863,-561.035,82.031,0
1712565393.036,-961.426,474.121,-504.395,-1000,0
1712565393.039,731.445,975.098,-587.402,-1000,0
1712565393.043,-674.805,-411.621,-683.594,-506.836,0
1712565393.046,-1000,-1000,-657.227,-919.434,0
1712565393.051,-404.297,-868.164,-567.871,278.809,0
1712565393.054,875.488,366.211,-559.082,-1000,0
1712565393.058,-888.672,-833.984,-574.707,-1000,0
1712565393.061,88.867,-1.465,-648.926,-404.785,0
1712565393.065,-1000,-1000,-655.273,-990.723,0
1712565393.068,-441.895,-916.992,-541.992,878.906,0
1712565393.072,888.184,290.527,-519.043,-489.746,0
1712565393.075,-874.512,-791.992,-499.023,-1000,0
1712565393.078,211.914,242.676,-567.871,-208.496,0
1712565393.082,-1000,-1000,-669.434,952.148,0
1712565393.085,-342.285,-933.105,-567.383,-901.855,0
1712565393.089,938.965,301.27,-499.512,184.57,0
1712565393.094,-900.391,-841.797,-527.344,-1000,0
1712565393.097,441.406,579.102,-603.516,-193.848,0
1712565393.101,-1000,-817.383,-618.164,998.047,0
1712565393.104,-375,-956.543,-541.992,-908.203,0
1712565393.108,993.164,411.133,-488.281,287.598,0
1712565393.111,969.727,-941.895,-459.473,-1000,0
1712565393.115,983.398,932.617,-518.066,-132.324,0
1712565393.118,-515.137,-321.777,-571.289,-942.383,0
1712565393.122,-556.152,-1000,-557.129,939.453,0
1712565393.125,-989.258,410.156,-483.887,-979.98,0
1712565393.128,925.781,-972.168,-415.039,-440.918,0
1712565393.132,-884.277,-959.961,-477.051,-296.875,0
1712565393.137,-136.23,17.578,-589.844,-882.324,0
1712565393.141,-688.965,-1000,-545.898,879.883,0
1712565393.144,923.34,222.168,-399.902,-852.051,0
1712565393.148,951.172,-966.309,-367.676,56.152,0
1712565393.151,-885.254,-934.57,-453.613,-290.527,0
1712565393.155,122.559,184.57,-536.133,-936.523,0
1712565393.158,-826.172,-1000,-430.664,912.109,0
1712565393.162,701.66,58.105,-267.09,-862.793,0
1712565393.165,-991.211,-965.332,-316.895,158.691,0
1712565393.168,-916.992,-934.082,-412.598,-246.094,0
1712565393.172,172.363,331.543,-516.113,-943.848,0
1712565393.175,-1000,-1000,-517.09,931.641,0
1712565393.181,458.984,-74.219,-402.832,-937.988,0
1712565393.184,-957.52,-962.891,-259.277,629.395,0
1712565393.188,-941.406,-950.195,-269.531,182.617,0
1712565393.191,316.895,479.98,-466.797,974.609,0
1712565393.195,-1000,-1000,-522.461,970.215,0
1712565393.198,137.695,-195.312,-344.727,-990.723,0
1712565393.202,-936.523,-967.773,-93.262,819.824,0
1712565393.205,-957.031,-964.844,-131.348,420.898,0
1712565393.209,475.586,603.516,-434.57,922.363,0
1712565393.212,-1000,-959.473,-515.137,992.676,0
1712565393.216,-119.141,-327.148,-381.348,975.586,0
1712565393.219,-959.473,-988.77,-319.824,927.734,0
1712565393.225,-955.566,-983.887,-376.953,586.426,0
1712565393.228,601.074,749.512,-507.324,888.184,0
1712565393.232,-1000,-783.691,-553.711,999.512,0
1712565393.235,-256.348,-498.535,-507.324,966.309,0
1712565393.239,-968.262,944.336,-419.922,967.285,0
1712565393.242,-974.609,-982.91,-275.391,605.957,0
1712565393.246,732.91,832.031,-421.875,850.098,0
1712565393.249,-879.883,-597.168,-605.957,-995.117,0
1712565393.253,-285.645,-802.734,-509.277,935.059,0
1712565393.256,-959.961,673.828,-392.09,-905.762,0
1712565393.26,-991.211,-937.012,-416.992,-100.586,0
1712565393.263,764.16,843.262,-525.391,123.047,0
1712565393.27,-846.191,-451.172,-578.125,-866.211,0
1712565393.274,-538.574,-1000,-541.992,890.137,0
1712565393.277,945.312,291.504,-488.77,-877.441,0
1712565393.281,-973.145,-922.363,-495.605,-216.797,0
1712565393.284,823.73,899.414,-541.992,-191.406,0
1712565393.288,-690.43,-288.086,-592.773,-897.461,0
1712565393.291,-804.199,-1000,-547.852,922.852,0
1712565393.295,764.648,10.254,-493.652,-920.41,0
1712565393.298,-965.332,-949.219,-478.027,-335.449,0
1712565393.302,942.383,978.027,-510.254,-340.82,0
1712565393.305,-353.516,-119.629,-641.602,-937.5,0
1712565393.309,-1000,-1000,-622.07,959.961,0
1712565393.316,375,-132.324,-516.602,-992.676,0
1712565393.319,-932.617,-973.145,-480.957,-484.375,0
1712565393.323,-996.582,-977.539,-542.969,-411.621,0
1712565393.326,-151.855,-13.184,-643.555,-952.637,0
1712565393.33,-1000,-1000,-598.633,945.801,0
1712565393.334,115.723,-282.227,-482.91,-972.656,0
1712565393.337,-963.379,972.168,-477.051,-396.973,0
1712565393.341,-962.891,-937.988,-557.129,-818.359,0
1712565393.344,5.371,59.57,-579.102,791.504,0
1712565393.348,-1000,-1000,-556.641,-990.234,0
1712565393.351,-175.293,-458.984,-540.527,-982.422,0
1712565393.355,992.676,860.352,-498.047,-122.07,0
1712565393.362,-914.551,-887.207,-525.879,-1000,0
1712565393.365,165.039,117.676,-630.859,169.922,0
1712565393.369,-1000,-1000,-649.414,-935.547,0
1712565393.372,-193.848,-714.355,-538.086,-973.145,0
1712565393.376,-999.023,612.305,-477.051,20.508,0
1712565393.379,-926.27,-831.543,-505.371,-1000,0
1712565393.383,236.328,117.188,-595.703,-159.18,0
1712565393.386,-1000,-1000,-605.957,-987.305,0
1712565393.39,-485.352,-964.844,-511.23,-932.129,0
1712565393.394,883.789,240.723,-524.902,46.387,0
1712565393.397,-877.93,-789.551,-549.805,-1000,0
1712565393.401,194.336,131.836,-608.398,-183.594,0
1712565393.407,-1000,-1000,-651.367,-1000,0
1712565393.411,-829.102,-1000,-598.633,-927.734,0
1712565393.414,529.785,-83.496,-536.133,150.391,0
1712565393.418,-799.805,-797.852,-534.18,-1000,0
1712565393.422,146.484,221.191,-611.816,-400.391,0
1712565393.425,-1000,-1000,-651.855,916.504,0
1712565393.429,-1000,-1000,-589.844,-891.602,0
1712565393.432,115.234,-203.125,-480.957,204.102,0
1712565393.436,-763.672,-823.73,-489.746,-1000,0
1712565393.439,137.695,324.219,-632.324,-702.148,0
1712565393.443,-1000,-954.59,-696.777,687.988,0
1712565393.447,-1000,-1000,-625.488,-827.148,0
1712565393.453,-129.883,-281.738,-570.801,162.109,0
1712565393.456,-793.945,-868.164,-580.566,-1000,0
1712565393.46,259.766,450.684,-619.629,-991.699,0
1712565393.464,-987.793,-863.281,-690.918,269.531,0
1712565393.467,-1000,-1000,-654.297,-771.973,0
1712565393.471,-254.395,-356.445,-547.363,145.02,0
1712565393.474,-864.258,-961.426,-517.578,-1000,0
1712565393.478,612.305,715.332,-546.387,-1000,0
1712565393.482,-787.109,-597.168,-668.945,62.988,0
1712565393.485,-1000,-1000,-681.641,-771.484,0
1712565393.489,-183.105,-364.258,-552.734,361.328,0
1712565393.492,-998.047,932.617,-515.137,-953.613,0
1712565393.499,-961.914,-975.098,-597.656,-1000,0
1712565393.502,-143.555,-96.68,-678.711,23.926,0
1712565393.506,-1000,-1000,-649.414,-845.703,0
1712565393.509,-126.953,-382.812,-562.5,716.309,0
1712565393.513,-998.535,904.785,-526.367,-634.277,0
1712565393.517,-925.293,-903.32,-556.152,-1000,0
1712565393.52,102.539,106.934,-599.609,-19.531,0
1712565393.524,-1000,-1000,-593.262,-918.945,0
1712565393.527,-185.059,-620.117,-574.219,914.062,0
1712565393.531,995.605,709.961,-511.719,-328.125,0
1712565393.534,-913.574,-846.191,-527.832,-1000,0
1712565393.538,225.586,162.109,-649.414,-164.551,0
1712565393.544,-1000,-1000,-655.273,-999.512,0
1712565393.548,-223.145,-824.707,-548.34,-942.383,0
1712565393.552,998.535,468.262,-507.324,-40.527,0
1712565393.555,-927.246,-806.641,-543.457,-1000,0
1712565393.559,230.469,165.039,-630.371,-182.129,0
1712565393.563,-1000,-1000,-648.926,-993.164,0
1712565393.566,-643.066,-1000,-536.621,-942.871,0
1712565393.57,756.348,55.176,-500.977,28.809,0
1712565393.573,-836.426,-789.551,-569.824,-1000,0
1712565393.577,151.367,160.645,-606.445,-420.898,0
1712565393.581,-1000,-1000,-641.602,914.551,0
1712565393.584,-1000,-1000,-638.184,-900.879,0
1712565393.591,99.121,-202.637,-573.242,-12.207,0
1712565393.595,-768.066,-819.336,-532.715,-1000,0
1712565393.599,114.258,185.059,-604.492,-931.152,0
1712565393.602,-1000,-1000,-710.449,372.559,0
1712565393.606,-1000,-1000,-628.418,-840.82,0
1712565393.609,-89.355,-242.676,-495.605,-86.426,0
1712565393.613,-816.406,-869.629,-480.957,-1000,0
1712565393.617,160.645,287.598,-636.719,-1000,0
1712565393.62,-1000,-986.328,-695.801,-21.973,0
1712565393.624,-1000,-1000,-615.234,-773.926,0
1712565393.628,-260.254,-397.461,-572.754,134.277,0
1712565393.631,-826.66,-923.34,-567.871,-1000,0
1712565393.638,257.324,494.629,-602.539,-1000,0
1712565393.642,-1000,-842.285,-680.664,-127.441,0
1712565393.645,-1000,-1000,-665.527,-794.922,0
1712565393.649,-248.047,-463.379,-584.961,155.273,0
1712565393.653,-889.16,935.547,-540.039,-1000,0
1712565393.656,613.281,749.023,-552.246,-1000,0
1712565393.66,-750.488,-548.828,-654.297,-244.141,0
1712565393.664,-1000,-1000,-664.551,-821.289,0
1712565393.667,-182.129,-551.27,-532.227,310.059,0
1712565393.671,-997.07,798.828,-490.234,-982.91,0
1712565393.675,-964.844,-968.75,-576.172,-1000,0
1712565393.678,-141.602,-158.691,-661.133,-253.418,0
1712565393.685,-1000,-1000,-651.367,-856.934,0
1712565393.688,-162.109,-620.117,-574.219,575.195,0
1712565393.692,982.91,699.707,-546.387,-823.73,0
1712565393.696,-912.109,-854.98,-569.336,-1000,0
1712565393.699,184.57,97.168,-636.719,-206.055,0
1712565393.703,-1000,-1000,-628.418,-946.289,0
1712565393.707,-196.777,-750,-547.363,894.043,0
1712565393.71,-997.559,554.688,-529.297,-416.992,0
1712565393.714,-918.945,-817.871,-491.699,-1000,0
1712565393.718,229.98,207.031,-561.523,-171.387,0
1712565393.721,-1000,-1000,-654.297,-998.535,0
1712565393.725,-296.875,-906.738,-567.871,-953.613,0
1712565393.731,971.68,338.867,-506.348,-70.801,0
1712565393.735,-911.133,-802.734,-526.855,-1000,0
1712565393.739,228.027,315.918,-616.211,-260.742,0
1712565393.742,-1000,-983.887,-655.762,957.031,0
1712565393.746,-437.988,-1000,-565.918,-909.18,0
1712565393.75,895.02,143.555,-499.023,170.41,0
1712565393.753,-888.184,-824.219,-487.793,-1000,0
1712565393.757,394.531,486.816,-549.316,-424.805,0
1712565393.761,-1000,-824.219,-607.91,904.297,0
1712565393.764,-644.531,-1000,-594.727,-875.488,0
1712565393.768,799.316,-29.297,-542.48,184.082,0
1712565393.772,-918.457,-887.207,-522.949,-1000,0
1712565393.778,398.926,592.773,-576.66,-459.473,0
1712565393.782,-896.484,-665.039,-650.391,769.531,0
1712565393.785,-1000,-1000,-608.398,-851.074,0
1712565393.789,247.07,-170.898,-524.414,183.594,0
1712565393.793,-814.453,-906.25,-514.648,-1000,0
1712565393.796,598.633,747.559,-559.57,-892.09,0
1712565393.8,-742.676,-531.738,-657.227,422.852,0
1712565393.804,-1000,-1000,-574.707,-786.621,0
1712565393.807,-52.246,-245.117,-488.77,252.441,0
1712565393.811,-905.273,-972.168,-550.781,-1000,0
1712565393.815,856.934,905.762,-589.844,-1000,0
1712565393.818,-433.594,-299.316,-648.438,143.555,0
1712565393.824,-1000,-1000,-643.066,-780.762,0
1712565393.828,-158.691,-348.633,-583.496,465.332,0
1712565393.832,-985.84,953.613,-523.926,-886.23,0
1712565393.835,-968.262,-990.234,-536.133,-1000,0
1712565393.839,-144.043,-111.816,-660.645,-0.488,0
1712565393.843,-1000,-1000,-664.062,-830.078,0
1712565393.846,-175.293,-578.125,-546.387,628.418,0
1712565393.85,-996.582,773.438,-500.977,-717.773,0
1712565393.854,-944.824,-915.039,-591.797,-1000,0
1712565393.857,-11.23,-47.363,-705.078,-206.543,0
1712565393.861,-1000,-1000,-676.27,-934.082,0
1712565393.865,-318.848,-806.152,-582.031,855.469,0
1712565393.871,938.477,491.699,-562.012,-475.586,0
1712565393.874,-902.344,-831.543,-586.426,-1000,0
1712565393.878,174.805,40.527,-666.992,-175.781,0
1712565393.882,-1000,-1000,-687.988,-992.188,0
1712565393.885,-478.516,-959.961,-607.91,-964.355,0
1712565393.889,879.883,234.863,-552.246,-134.277,0
1712565393.893,-877.93,-788.574,-513.184,-1000,0
1712565393.896,202.148,137.695,-590.82,-201.66,0
1712565393.9,-1000,-1000,-726.562,989.258,0
1712565393.904,-740.234,-1000,-626.953,-936.035,0
1712565393.907,644.531,-36.621,-543.457,40.527,0
1712565393.911,-819.336,-793.457,-589.355,-1000,0
1712565393.917,154.785,223.633,-663.086,-440.918,0
1712565393.921,-1000,-996.582,-694.336,886.23,0
1712565393.924,-1000,-1000,-626.953,-881.348,0
1712565393.928,208.984,-187.012,-576.172,146.973,0
1712565393.932,-820.801,-821.289,-571.289,-1000,0
1712565393.935,84.961,331.055,-608.398,-696.777,0
1712565393.939,-1000,-951.172,-654.297,660.645,0
1712565393.943,-1000,-1000,-628.906,-824.707,0
1712565393.946,-23.438,-242.676,-587.402,169.922,0
1712565393.95,-782.227,-864.258,-552.246,-1000,0
1712565393.954,386.719,496.094,-593.262,-932.129,0
1712565393.957,-921.387,-815.918,-711.914,373.535,0
1712565393.963,-1000,-1000,-669.434,-779.297,0
1712565393.967,-206.055,-319.336,-583.496,140.137,0
1712565393.97,-838.867,-927.246,-564.453,-1000,0
1712565393.974,514.16,634.277,-635.254,-1000,0
1712565393.978,-871.582,-682.129,-706.543,27.832,0
1712565393.981,-1000,-1000,-628.418,-769.531,0
1712565393.985,-237.305,-495.117,-561.035,196.777,0
1712565393.989,-859.375,934.57,-578.125,-1000,0
1712565393.993,550.293,776.367,-624.023,-1000,0
1712565393.996,-837.402,-574.219,-674.316,-210.449,0
1712565394,-1000,-1000,-679.688,-820.312,0
1712565394.004,-256.836,-703.613,-617.676,406.25,0
1712565394.01,-958.008,671.387,-553.223,-933.105,0
1712565394.014,876.465,982.422,-597.168,-1000,0
1712565394.018,-434.082,-331.543,-700.684,-246.582,0
1712565394.021,-1000,-1000,-701.66,-859.375,0
1712565394.025,-355.469,-802.734,-605.957,589.844,0
1712565394.029,926.27,508.789,-520.996,-825.195,0
1712565394.032,-927.246,-889.16,-561.523,-1000,0
1712565394.036,-54.199,-128.418,-679.199,-212.891,0
1712565394.04,-1000,-1000,-676.27,-921.875,0
1712565394.043,-542.48,-999.512,-569.824,803.223,0
1712565394.047,825.195,159.18,-565.918,-531.738,0
1712565394.051,-868.652,-813.477,-601.074,-1000,0
1712565394.057,44.922,-7.812,-670.41,-348.145,0
1712565394.061,-1000,-1000,-706.543,960.449,0
1712565394.065,-806.641,-1000,-632.812,-986.328,0
1712565394.068,522.949,-78.125,-562.012,-232.91,0
1712565394.072,-800.781,-798.34,-565.918,-1000,0
1712565394.076,159.668,136.719,-621.094,-474.609,0
1712565394.079,-1000,-1000,-687.5,856.934,0
1712565394.083,-981.445,-1000,-645.508,-886.719,0
1712565394.087,287.598,-170.41,-507.324,6.836,0
1712565394.09,-772.949,-812.5,-514.648,-1000,0
1712565394.094,163.086,303.711,-652.832,-729.492,0
1712565394.098,-1000,-968.75,-682.129,614.258,0
1712565394.104,-1000,-1000,-630.371,-814.453,0
1712565394.108,63.477,-222.168,-589.355,132.812,0
1712565394.111,-766.602,-843.75,-576.172,-1000,0
1712565394.115,287.598,416.992,-627.441,-1000,0
1712565394.119,-962.402,-884.766,-682.617,254.883,0
1712565394.123,-1000,-1000,-617.188,-823.242,0
1712565394.126,-186.523,-307.129,-552.246,51.758,0
1712565394.13,-824.707,-905.762,-520.508,-1000,0
1712565394.134,465.332,572.266,-572.266,-1000,0
1712565394.137,-896.484,-747.07,-709.961,-2.93,0
1712565394.141,-1000,-1000,-680.176,-774.414,0
1712565394.145,-226.562,-394.531,-567.871,145.996,0
1712565394.151,-908.203,993.652,-552.246,-1000,0
1712565394.154,765.137,805.664,-634.766,-1000,0
1712565394.158,-604.004,-492.676,-699.219,-158.691,0
1712565394.162,-1000,-1000,-666.016,-801.27,0
1712565394.166,-193.848,-542.48,-592.773,317.383,0
1712565394.169,-956.543,842.773,-531.738,-968.262,0
1712565394.173,924.316,953.613,-590.82,-1000,0
1712565394.177,-345.703,-325.195,-656.25,-254.395,0
1712565394.181,-1000,-1000,-633.789,-844.238,0
1712565394.184,-313.965,-788.574,-617.188,494.629,0
1712565394.188,970.215,544.434,-569.336,-890.625,0
1712565394.192,-975.586,-932.617,-587.402,-1000,0
1712565394.197,-181.641,-211.426,-699.219,-229.492,0
1712565394.201,-1000,-1000,-711.914,-892.578,0
1712565394.205,-481.445,-950.195,-604.98,703.613,0
1712565394.209,848.633,251.953,-564.453,-669.434,0
1712565394.212,-877.441,-825.684,-588.867,-1000,0
1712565394.216,77.637,-24.902,-652.344,-287.598,0
1712565394.22,-1000,-1000,-669.434,-999.023,0
1712565394.224,-655.273,-1000,-575.684,958.008,0
1712565394.227,713.867,36.133,-572.266,-309.57,0
1712565394.231,-833.008,-791.016,-597.656,-1000,0
1712565394.235,171.387,103.027,-635.742,-431.152,0
1712565394.238,-1000,-1000,-645.996,896.484,0
1712565394.244,-929.688,-1000,-604.98,-916.992,0
1712565394.248,378.906,-140.625,-580.078,-94.727,0
1712565394.251,-781.25,-804.199,-567.383,-1000,0
1712565394.255,143.555,225.586,-643.066,-696.777,0
1712565394.259,-1000,-1000,-688.965,640.625,0
1712565394.263,-1000,-1000,-603.027,-824.707,0
1712565394.266,75.195,-216.309,-505.371,90.332,0
1712565394.27,-766.602,-833.496,-507.324,-1000,0
1712565394.274,252.441,384.277,-640.137,-915.527,0
1712565394.278,-996.094,-916.504,-700.684,375.977,0
1712565394.281,-1000,-1000,-627.93,-780.762,0
1712565394.285,-33.691,-244.629,-565.43,147.949,0
1712565394.291,-796.387,-888.672,-559.57,-1000,0
1712565394.295,486.328,602.539,-584.473,-1000,0
1712565394.299,-865.723,-707.52,-637.695,131.348,0
1712565394.303,-1000,-1000,-639.648,-765.625,0
1712565394.306,-181.641,-306.152,-549.316,143.066,0
1712565394.31,-894.531,-963.867,-481.934,-1000,0
1712565394.314,749.023,797.852,-511.719,-1000,0
1712565394.318,-614.258,-477.051,-619.141,-33.691,0
1712565394.321,-1000,-1000,-646.973,-776.855,0
1712565394.325,-184.082,-408.691,-537.598,261.719,0
1712565394.329,-981.934,924.805,-483.398,-979.98,0
1712565394.333,-996.582,983.887,-558.105,-1000,0
1712565394.338,-222.656,-193.359,-644.043,-222.656,0
1712565394.342,-1000,-1000,-624.023,-834.473,0
1712565394.345,-165.039,-522.949,-529.785,497.559,0
1712565394.349,990.234,804.199,-511.719,-883.301,0
1712565394.353,-923.34,-899.414,-532.715,-1000,0
1712565394.357,67.383,28.809,-591.309,-225.098,0
1712565394.36,-1000,-1000,-607.422,-905.762,0
1712565394.364,-181.152,-696.289,-541.016,756.348,0
1712565394.368,993.652,625,-505.859,-615.723,0
1712565394.371,-919.434,-836.426,-466.797,-1000,0
1712565394.375,232.91,117.188,-555.664,-188.965,0
1712565394.379,-1000,-1000,-652.344,-969.727,0
1712565394.385,-359.375,-896.973,-545.41,964.844,0
1712565394.389,946.289,347.656,-482.422,-278.32,0
1712565394.393,-903.32,-796.387,-533.691,-1000,0
1712565394.396,223.633,197.754,-610.84,-281.738,0
1712565394.4,-1000,-1000,-621.582,959.473,0
1712565394.404,-546.875,-1000,-537.598,-932.129,0
1712565394.407,844.238,106.445,-484.375,-29.297,0
1712565394.411,-865.723,-795.41,-511.719,-1000,0
1712565394.415,215.82,324.707,-574.219,-430.176,0
1712565394.419,-1000,-947.754,-600.586,884.277,0
1712565394.422,-742.676,-1000,-590.332,-882.812,0
1712565394.426,623.047,-84.961,-543.945,153.32,0
1712565394.432,-817.871,-828.613,-505.371,-1000,0
1712565394.436,331.543,463.379,-583.008,-679.688,0
1712565394.44,-972.168,-843.75,-683.594,702.637,0
1712565394.443,-1000,-1000,-610.352,-830.078,0
1712565394.447,148.926,-187.012,-513.672,165.039,0
1712565394.451,-779.785,-873.047,-504.395,-1000,0
1712565394.455,441.406,594.727,-593.75,-972.168,0
1712565394.458,-885.254,-714.844,-686.523,303.223,0
1712565394.462,-1000,-1000,-574.219,-773.926,0
1712565394.466,-101.074,-257.324,-495.605,142.578,0
1712565394.47,-847.168,-932.617,-562.988,-1000,0
1712565394.473,642.09,752.441,-588.867,-1000,0
1712565394.479,-724.609,-530.273,-669.434,42.48,0
1712565394.483,-1000,-1000,-659.18,-768.066,0
1712565394.487,-202.148,-353.027,-587.402,205.566,0
1712565394.49,-946.777,984.863,-546.875,-1000,0
1712565394.494,895.02,905.273,-568.359,-1000,0
1712565394.498,-415.527,-326.66,-666.992,-136.23,0
1712565394.502,-1000,-1000,-654.297,-803.223,0
1712565394.505,-182.129,-544.434,-556.152,400.879,0
1712565394.509,-977.051,824.219,-511.719,-924.805,0
1712565394.513,997.559,-992.188,-609.863,-1000,0
1712565394.517,-211.914,-216.309,-716.309,-247.07,0
1712565394.52,-1000,-1000,-678.223,-849.121,0
1712565394.526,-321.289,-800.781,-607.422,519.531,0
1712565394.53,957.031,521.973,-594.238,-873.535,0
1712565394.533,-939.941,-900.391,-603.027,-1000,0
1712565394.537,-127.441,-149.902,-696.777,-237.793,0
1712565394.541,-1000,-1000,-714.355,-910.156,0
1712565394.545,-429.199,-980.957,-607.422,749.023,0
1712565394.548,820.312,192.383,-579.102,-608.887,0
1712565394.552,-869.141,-817.871,-573.73,-1000,0
1712565394.556,71.777,-16.602,-648.926,-374.023,0
1712565394.56,-1000,-1000,-744.629,964.844,0
1712565394.564,-779.785,-1000,-652.344,972.656,0
1712565394.567,565.918,-55.664,-581.543,-315.918,0
1712565394.573,-806.152,-799.316,-619.141,-1000,0
1712565394.576,130.859,89.844,-705.566,-603.027,0
1712565394.58,-1000,-1000,-735.352,771.484,0
1712565394.584,-1000,-1000,-663.086,-887.207,0
1712565394.588,176.758,-192.871,-611.328,-157.227,0
1712565394.592,-763.184,-812.5,-599.609,-1000,0
1712565394.595,138.184,191.406,-646.973,-857.91,0
1712565394.599,-1000,-1000,-695.312,427.734,0
1712565394.603,-1000,-1000,-685.059,-793.945,0
1712565394.607,-43.945,-272.949,-637.695,13.672,0
1712565394.61,-780.273,-840.332,-593.262,-1000,0
1712565394.614,145.508,315.918,-651.855,-1000,0
1712565394.619,-1000,-964.844,-750.488,116.699,0
1712565394.623,-1000,-1000,-695.312,-764.16,0
1712565394.627,-232.91,-343.262,-599.121,149.902,0
1712565394.631,-819.336,-890.625,-607.422,-1000,0
1712565394.634,324.707,464.844,-656.738,-1000,0
1712565394.638,-974.609,-870.605,-714.355,55.664,0
1712565394.642,-1000,-1000,-643.555,-789.551,0
1712565394.646,-254.395,-452.637,-531.25,145.02,0
1712565394.65,-841.797,995.117,-577.637,-1000,0
1712565394.653,464.844,669.434,-640.137,-1000,0
1712565394.657,-907.227,-683.594,-701.172,-225.586,0
1712565394.661,-1000,-1000,-702.637,-816.895,0
1712565394.666,-228.516,-628.906,-622.07,225.586,0
1712565394.67,-905.273,780.273,-583.984,-1000,0
1712565394.674,751.465,904.785,-623.535,-1000,0
1712565394.677,-634.766,-452.148,-716.797,-243.652,0
1712565394.681,-1000,-1000,-695.801,-893.555,0
1712565394.685,-188.477,-738.77,-569.824,371.582,0
1712565394.689,956.543,558.105,-515.137,-900.879,0
1712565394.692,-954.59,-931.641,-586.914,-1000,0
1712565394.696,-114.746,-196.777,-705.566,-239.258,0
1712565394.7,-1000,-1000,-686.523,-876.953,0
1712565394.704,-431.152,-915.527,-572.754,644.043,0
1712565394.707,886.719,323.242,-568.359,-737.793,0
1712565394.713,-893.066,-835.449,-615.723,-1000,0
1712565394.716,50.293,-49.316,-673.828,-345.215,0
1712565394.72,-1000,-1000,-691.406,-986.328,0
1712565394.724,-665.527,-1000,-632.812,867.676,0
1712565394.728,697.266,30.273,-575.195,-471.191,0
1712565394.731,-831.055,-795.41,-537.109,-1000,0
1712565394.735,168.945,78.125,-623.535,-490.234,0
1712565394.739,-1000,-1000,-714.844,865.723,0
1712565394.743,-894.531,-1000,-625.488,-918.457,0
1712565394.746,431.152,-124.512,-536.621,-158.203,0
1712565394.75,-789.062,-801.27,-573.242,-1000,0
1712565394.754,150.391,223.633,-658.203,-717.773,0
1712565394.76,-1000,-1000,-694.336,614.746,0
1712565394.764,-1000,-1000,-616.699,-824.219,0
1712565394.767,164.062,-200.684,-558.594,30.273,0
1712565394.771,-761.23,-825.684,-577.148,-1000,0
1712565394.775,200.195,349.121,-623.535,-942.383,0
1712565394.779,-1000,-937.5,-655.273,314.453,0
1712565394.782,-1000,-1000,-625.488,-772.461,0
1712565394.786,-101.074,-275.391,-560.547,133.789,0
1712565394.79,-793.945,-872.559,-534.668,-1000,0
1712565394.794,352.539,481.445,-586.426,-1000,0
1712565394.797,-944.336,-833.984,-704.102,27.344,0
1712565394.801,-1000,-1000,-672.852,-771.484,0
1712565394.807,-247.07,-354.492,-578.125,145.02,0
1712565394.811,-866.211,-956.055,-563.477,-1000,0
1712565394.814,609.375,693.848,-630.859,-1000,0
1712565394.818,-790.527,-621.582,-703.613,-125.488,0
1712565394.822,-1000,-1000,-666.504,-793.457,0
1712565394.826,-207.031,-456.055,-573.242,201.66,0
1712565394.829,-938.965,926.27,-543.457,-1000,0
1712565394.833,868.164,896.484,-621.582,-1000,0
1712565394.837,-456.543,-384.277,-646.484,-261.719,0
1712565394.841,-1000,-1000,-630.371,-831.543,0
1712565394.845,-180.664,-654.297,-617.188,388.672,0
1712565394.848,-982.422,709.473,-555.176,-948.73,0
1712565394.854,-994.629,-967.285,-581.055,-1000,0
1712565394.858,-184.57,-220.703,-692.383,-248.047,0
1712565394.861,-1000,-1000,-711.426,-855.469,0
1712565394.865,-354.98,-848.145,-608.398,556.152,0
1712565394.869,923.828,435.547,-526.855,-835.449,0
1712565394.873,-910.156,-859.863,-562.988,-1000,0
1712565394.877,34.18,-67.383,-668.457,-275.879,0
1712565394.88,-1000,-1000,-656.25,-935.059,0
1712565394.884,-511.719,-973.145,-569.336,789.551,0
1712565394.888,838.867,203.125,-565.918,-564.453,0
1712565394.892,-864.258,-796.387,-591.797,-1000,0
1712565394.895,196.289,67.871,-643.555,-403.32,0
1712565394.901,-1000,-1000,-678.223,934.082,0
1712565394.905,-764.648,-1000,-635.254,-979.98,0
1712565394.909,614.258,-38.574,-563.965,-246.582,0
1712565394.912,-815.43,-792.969,-571.289,-1000,0
1712565394.916,157.715,177.246,-638.184,-628.906,0
1712565394.92,-1000,-1000,-675.781,730.957,0
1712565394.924,-1000,-1000,-603.027,-860.352,0
1712565394.927,245.117,-175.781,-539.062,-67.871,0
1712565394.931,-769.531,-815.43,-562.5,-1000,0
1712565394.935,152.832,306.152,-642.578,-884.766,0
1712565394.939,-1000,-967.285,-683.594,389.16,0
1712565394.943,-1000,-1000,-606.445,-783.203,0
1712565394.948,32.227,-225.586,-555.176,109.375,0
1712565394.952,-773.926,-855.957,-567.383,-1000,0
1712565394.955,374.023,483.398,-611.816,-1000,0
1712565394.959,-931.152,-829.102,-680.664,163.086,0
1712565394.963,-1000,-1000,-650.391,-765.137,0
1712565394.967,-125.977,-284.18,-562.012,143.555,0
1712565394.97,-828.613,-918.457,-541.016,-1000,0
1712565394.974,554.199,661.621,-533.203,-1000,0
1712565394.978,-818.848,-645.02,-633.789,2.441,0
1712565394.982,-1000,-1000,-678.711,-773.926,0
1712565394.986,-218.262,-392.09,-568.359,141.602,0
1712565394.989,-913.574,984.863,-539.551,-1000,0
1712565394.995,781.738,836.426,-614.258,-1000,0
1712565394.998,-582.031,-450.684,-674.805,-223.633,0
1712565395.002,-1000,-1000,-643.066,-816.895,0
1712565395.006,-180.664,-544.434,-586.914,325.195,0
1712565395.01,-986.328,816.406,-563.965,-973.633,0
1712565395.013,-986.328,-991.699,-593.75,-1000,0
1712565395.017,-187.012,-208.008,-629.395,-253.906,0
1712565395.021,-1000,-1000,-628.906,-846.68,0
1712565395.025,-229.004,-727.051,-624.512,519.043,0
1712565395.029,975.098,599.121,-563.477,-875.488,0
1712565395.032,-930.664,-878.418,-575.684,-1000,0
1712565395.036,39.062,-48.34,-686.035,-222.656,0
1712565395.041,-1000,-1000,-696.777,-908.203,0
1712565395.045,-428.223,-910.645,-593.262,758.789,0
1712565395.049,889.648,327.637,-544.922,-596.68,0
1712565395.053,-883.789,-809.082,-578.125,-1000,0
1712565395.056,187.988,46.387,-651.855,-323.242,0
1712565395.06,-1000,-1000,-658.691,980.957,0
1712565395.064,-642.578,-1000,-555.176,980.957,0
1712565395.068,750.977,67.871,-541.992,-282.715,0
1712565395.071,-843.75,-787.109,-589.844,-1000,0
1712565395.075,183.105,161.621,-626.465,-467.285,0
1712565395.079,-1000,-1000,-664.062,869.141,0
1712565395.083,-832.52,-1000,-635.254,-900.391,0
1712565395.088,521.973,-103.027,-571.777,-56.641,0
1712565395.092,-800.293,-803.223,-549.805,-1000,0
1712565395.095,172.363,302.734,-615.723,-695.801,0
1712565395.099,-1000,-965.332,-692.383,645.02,0
1712565395.103,-1000,-1000,-640.137,-822.266,0
1712565395.107,190.918,-189.453,-526.855,111.816,0
1712565395.111,-766.602,-841.309,-499.023,-1000,0
1712565395.114,317.871,452.148,-615.234,-959.473,0
1712565395.118,-959.961,-857.91,-688.477,307.617,0
1712565395.122,-1000,-1000,-603.027,-773.926,0
1712565395.126,-27.344,-242.676,-550.293,144.043,0
1712565395.129,-799.316,-895.508,-557.129,-1000,0
1712565395.135,493.652,627.441,-589.355,-1000,0
1712565395.139,-858.887,-680.176,-664.062,68.848,0
1712565395.143,-1000,-1000,-649.902,-767.578,0
1712565395.146,-196.289,-315.918,-573.242,142.578,0
1712565395.15,-905.762,-974.609,-539.551,-1000,0
1712565395.154,775.391,823.73,-567.383,-1000,0
1712565395.158,-584.473,-445.312,-643.066,-104.004,0
1712565395.161,-1000,-1000,-641.113,-788.574,0
1712565395.165,-185.547,-438.477,-528.809,285.645,0
1712565395.169,-976.562,911.621,-470.703,-974.609,0
1712565395.173,990.234,970.703,-583.008,-1000,0
1712565395.177,-247.07,-234.375,-698.242,-256.348,0
1712565395.182,-1000,-1000,-664.551,-842.285,0
1712565395.186,-171.875,-640.625,-567.383,488.77,0
1712565395.19,-998.047,710.449,-551.758,-894.531,0
1712565395.193,-949.707,-918.457,-597.656,-1000,0
1712565395.197,-32.227,-95.215,-666.992,-231.445,0
1712565395.201,-1000,-1000,-665.039,-888.672,0
1712565395.205,-343.262,-838.379,-582.031,689.941,0
1712565395.209,926.758,442.871,-553.711,-692.871,0
1712565395.212,-899.414,-829.102,-534.18,-1000,0
1712565395.216,162.109,24.902,-605.469,-235.352,0
1712565395.22,-1000,-1000,-705.566,-974.121,0
1712565395.224,-528.32,-979.492,-608.887,936.523,0
1712565395.229,847.656,192.871,-512.695,-332.52,0
1712565395.233,-866.699,-787.598,-556.641,-1000,0
1712565395.237,196.777,135.254,-665.039,-375.488,0
1712565395.24,-1000,-1000,-687.5,924.805,0
1712565395.244,-759.277,-1000,-601.562,-930.176,0
1712565395.248,621.582,-37.598,-552.246,-90.82,0
1712565395.252,-816.895,-794.434,-565.918,-1000,0
1712565395.256,159.668,255.859,-606.934,-568.848,0
1712565395.259,-1000,-984.863,-646.484,786.133,0
1712565395.263,-988.77,-1000,-627.441,-858.398,0
1712565395.267,259.277,-168.457,-574.707,51.758,0
1712565395.271,-770.508,-826.172,-541.992,-1000,0
1712565395.276,257.812,389.16,-600.586,-849.121,0
1712565395.28,-994.629,-910.156,-699.707,461.426,0
1712565395.284,-1000,-1000,-630.371,-791.016,0
1712565395.287,46.875,-219.727,-536.133,151.855,0
1712565395.291,-784.18,-875.488,-541.016,-1000,0
1712565395.295,457.52,576.66,-591.309,-1000,0
1712565395.299,-884.766,-737.793,-672.363,181.641,0
1712565395.303,-1000,-1000,-583.984,-766.113,0
1712565395.306,-102.539,-272.949,-496.582,141.113,0
1712565395.31,-856.445,-938.965,-558.594,-1000,0
1712565395.314,673.34,756.348,-592.773,-1000,0
1712565395.318,-687.5,-527.832,-653.809,-21.973,0
1712565395.323,-1000,-1000,-648.438,-775.879,0
1712565395.327,-201.172,-390.137,-579.59,187.988,0
1712565395.33,-945.801,962.402,-531.738,-1000,0
1712565395.334,893.066,910.645,-582.52,-1000,0
1712565395.338,-418.457,-333.496,-677.246,-221.68,0
1712565395.342,-1000,-1000,-630.859,-822.754,0
1712565395.346,-174.316,-568.359,-532.715,416.016,0
1712565395.349,-994.629,785.156,-486.816,-929.688,0
1712565395.353,-960.938,-957.031,-558.594,-1000,0
1712565395.357,-107.422,-143.066,-681.641,-242.676,0
1712565395.361,-1000,-1000,-640.137,-866.699,0
1712565395.365,-245.117,-756.836,-555.664,608.887,0
1712565395.37,968.75,558.594,-568.359,-791.016,0
1712565395.373,-921.387,-854.492,-589.844,-1000,0
1712565395.377,92.773,-6.836,-651.367,-208.008,0
1712565395.381,-1000,-1000,-677.734,-936.035,0
1712565395.385,-459.473,-946.777,-606.445,853.516,0
1712565395.389,877.441,265.625,-545.41,-460.449,0
1712565395.392,-877.93,-799.316,-511.23,-1000,0
1712565395.396,205.566,68.359,-599.609,-329.102,0
1712565395.4,-1000,-1000,-704.59,957.031,0
1712565395.404,-708.496,-1000,-608.887,-962.891,0
1712565395.408,683.594,-0.977,-546.387,-166.992,0
1712565395.411,-829.59,-790.527,-580.078,-1000,0
1712565395.416,171.875,194.824,-649.902,-485.352,0
1712565395.42,-1000,-1000,-684.082,854.004,0
1712565395.424,-916.504,-1000,-615.723,-883.301,0
1712565395.428,420.41,-117.188,-563.965,11.719,0
1712565395.432,-840.332,-863.281,-573.242,-1000,0
1712565395.435,112.305,263.184,-608.398,-679.199,0
1712565395.439,-1000,-931.152,-643.555,649.902,0
1712565395.443,-1000,-1000,-615.723,-820.801,0
1712565395.447,100.586,-204.102,-572.266,143.555,0
1712565395.451,-769.531,-851.074,-542.969,-1000,0
1712565395.454,363.77,484.375,-600.098,-989.258,0
1712565395.458,-932.617,-827.637,-695.801,266.602,0
1712565395.463,-1000,-1000,-625.488,-770.508,0
1712565395.467,-102.539,-266.113,-534.668,140.625,0
1712565395.471,-822.754,-911.621,-533.203,-1000,0
1712565395.474,545.898,660.156,-611.816,-1000,0
1712565395.478,-823.73,-647.461,-689.941,15.137,0
1712565395.482,-1000,-1000,-606.445,-772.949,0
1712565395.486,-208.496,-337.891,-515.625,145.996,0
1712565395.49,-933.105,-997.559,-547.852,-1000,0
1712565395.493,850.098,866.211,-581.543,-1000,0
1712565395.497,-483.398,-386.23,-644.043,-136.23,0
1712565395.501,-1000,-1000,-652.344,-795.898,0
1712565395.505,-181.152,-476.562,-579.59,318.848,0
1712565395.51,-982.422,876.465,-525.391,-964.844,0
1712565395.514,-989.258,996.094,-579.59,-1000,0
1712565395.518,-200.195,-202.148,-677.246,-253.906,0
1712565395.522,-1000,-1000,-651.855,-846.191,0
1712565395.526,-205.078,-700.195,-566.406,512.695,0
1712565395.529,989.746,639.16,-501.465,-879.395,0
1712565395.533,-942.383,-897.949,-548.34,-1000,0
1712565395.537,-11.719,-80.078,-655.273,-225.098,0
1712565395.541,-1000,-1000,-659.668,-902.344,0
1712565395.545,-395.508,-880.371,-562.5,742.188,0
1712565395.548,901.367,374.512,-551.27,-626.465,0
1712565395.552,-889.16,-814.453,-592.773,-1000,0
1712565395.557,184.082,41.992,-629.395,-250,0
1712565395.561,-1000,-1000,-641.113,999.023,0
1712565395.565,-578.613,-1000,-611.328,-999.023,0
1712565395.569,865.723,151.367,-567.383,-317.383,0
1712565395.573,-964.355,-891.113,-560.547,-1000,0
1712565395.576,4.883,-30.762,-620.605,-121.094,0
1712565395.58,-1000,-1000,-674.316,885.742,0
1712565395.584,-842.285,-1000,-616.699,-919.434,0
1712565395.588,502.441,-100.586,-518.066,-32.227,0
1712565395.592,-798.34,-800.781,-506.348,-1000,0
1712565395.595,150.391,271.484,-646.484,-642.09,0
1712565395.599,-1000,-980.469,-692.871,713.379,0
1712565395.604,-1000,-1000,-629.395,-836.426,0
1712565395.608,161.621,-190.918,-575.684,108.398,0
1712565395.612,-764.16,-835.449,-566.406,-1000,0
1712565395.616,288.574,420.898,-626.953,-884.766,0
1712565395.62,-977.051,-885.254,-680.664,426.27,0
1712565395.623,-1000,-1000,-611.328,-786.621,0
1712565395.627,-13.184,-234.375,-552.246,148.438,0
1712565395.631,-795.898,-888.672,-514.16,-1000,0
1712565395.635,488.77,613.281,-549.316,-1000,0
1712565395.639,-862.793,-696.777,-687.988,141.602,0
1712565395.642,-1000,-1000,-672.852,-765.137,0
1712565395.646,-174.316,-301.758,-553.711,139.16,0
1712565395.651,-888.184,-958.008,-522.461,-1000,0
1712565395.655,731.934,783.203,-607.422,-1000,0
1712565395.659,-634.277,-497.559,-691.406,-83.984,0
1712565395.663,-1000,-1000,-660.156,-785.156,0
1712565395.667,-193.359,-428.223,-569.824,222.168,0
1712565395.67,-959.473,929.199,-520.996,-999.512,0
1712565395.674,937.988,941.406,-581.543,-1000,0
1712565395.678,-342.285,-293.457,-643.555,-247.07,0
1712565395.682,-1000,-1000,-609.375,-833.008,0
1712565395.686,-170.41,-606.934,-583.008,447.266,0
1712565395.689,999.023,740.234,-540.039,-916.992,0
1712565395.693,-947.754,-930.176,-554.688,-1000,0
1712565395.698,-39.062,-103.027,-654.785,-237.305,0
1712565395.702,-1000,-1000,-684.57,-879.883,0
1712565395.706,-283.691,-796.387,-594.238,660.156,0
1712565395.71,956.055,503.906,-534.668,-732.91,0
1712565395.713,-914.062,-841.309,-563.477,-1000,0
1712565395.717,125.488,11.23,-636.23,-214.355,0
1712565395.721,-1000,-1000,-646.973,-946.289,0
1712565395.725,-507.812,-964.844,-552.246,876.953,0
1712565395.729,854.004,226.074,-554.199,-426.27,0
1712565395.732,-869.141,-791.504,-592.773,-1000,0
1712565395.736,197.754,99.121,-631.348,-339.844,0
1712565395.74,-1000,-1000,-651.855,944.824,0
1712565395.745,-759.766,-1000,-612.305,-945.312,0
1712565395.749,620.605,-32.227,-570.801,-124.023,0
1712565395.752,-818.359,-792.48,-552.246,-1000,0
1712565395.756,166.992,228.516,-624.512,-493.652,0
1712565395.76,-1000,-999.023,-685.547,843.75,0
1712565395.764,-936.523,-1000,-597.656,-873.047,0
1712565395.768,356.445,-152.344,-484.375,74.707,0
1712565395.772,-777.344,-820.312,-488.77,-1000,0
1712565395.775,224.609,373.535,-642.578,-773.926,0
1712565395.779,-1000,-920.898,-702.148,571.289,0
1712565395.783,-1000,-1000,-608.398,-806.641,0
1712565395.787,66.895,-213.867,-544.922,156.738,0
1712565395.792,-774.414,-862.793,-570.312,-1000,0
1712565395.795,389.16,523.926,-631.836,-1000,0
1712565395.799,-918.945,-789.062,-688.965,234.863,0
1712565395.803,-1000,-1000,-658.691,-768.066,0
1712565395.807,-130.859,-282.227,-567.871,141.113,0
1712565395.811,-841.797,-929.688,-512.207,-1000,0
1712565395.814,606.934,706.543,-547.363,-1000,0
1712565395.818,-767.09,-591.309,-648.926,13.184,0
1712565395.822,-1000,-1000,-654.297,-771.973,0
1712565395.826,-204.59,-365.234,-549.316,187.012,0
1712565395.83,-944.824,980.469,-520.996,-1000,0
1712565395.833,886.719,900.879,-607.422,-1000,0
1712565395.838,-428.223,-340.332,-681.641,-174.805,0
1712565395.842,-1000,-1000,-651.855,-810.059,0
1712565395.846,-176.758,-517.578,-566.895,388.184,0
1712565395.85,-990.723,837.891,-562.988,-937.012,0
1712565395.853,-968.75,-979.492,-587.402,-1000,0
1712565395.857,-137.207,-172.852,-605.469,-247.559,0
1712565395.861,-1000,-1000,-625.488,-854.98,0
1712565395.865,-243.164,-744.141,-593.75,553.711,0
1712565395.869,974.121,581.055,-527.344,-844.727,0
1712565395.872,-929.688,-874.512,-553.711,-1000,0
1712565395.876,33.203,-47.363,-666.992,-215.82,0
1712565395.88,-1000,-1000,-692.383,-922.852,0
1712565395.885,-426.27,-911.133,-583.008,810.547,0
1712565395.889,887.207,323.242,-529.297,-528.32,0
1712565395.893,-881.836,-804.688,-577.637,-1000,0
1712565395.897,213.379,66.895,-668.457,-281.738,0
1712565395.901,-1000,-1000,-679.199,982.91,0
1712565395.904,-614.746,-1000,-577.637,-986.816,0
1712565395.908,786.133,77.637,-535.645,-205.566,0
1712565395.912,-849.609,-786.621,-567.871,-1000,0
1712565395.916,177.734,174.805,-619.629,-428.711,0
1712565395.92,-1000,-1000,-650.879,889.648,0
1712565395.923,-898.926,-1000,-618.164,-901.855,0
1712565395.927,425.781,-127.441,-545.898,-13.672,0
1712565395.932,-787.109,-806.152,-533.203,-1000,0
1712565395.936,145.508,295.41,-607.422,-688.965,0
1712565395.94,-1000,-971.191,-702.637,658.203,0
1712565395.944,-1000,-1000,-643.066,-824.707,0
1712565395.948,100.098,-202.148,-551.758,135.254,0
1712565395.951,-766.113,-844.238,-526.855,-1000,0
1712565395.955,321.777,456.543,-608.398,-931.641,0
1712565395.959,-961.914,-854.98,-700.195,361.816,0
1712565395.963,-1000,-1000,-586.426,-779.297,0
1712565395.967,-44.922,-247.559,-500.977,145.508,0
1712565395.97,-803.223,-901.855,-565.43,-1000,0
1712565395.974,505.371,649.414,-608.887,-1000,0
1712565395.979,-851.562,-657.227,-670.41,95.703,0
1712565395.983,-1000,-1000,-643.555,-765.137,0
1712565395.987,-215.82,-331.543,-546.875,140.137,0
1712565395.991,-904.785,-978.027,-550.293,-1000,0
1712565395.995,756.348,811.523,-584.961,-1000,0
1712565395.998,-613.77,-468.75,-653.32,-90.332,0
1712565396.002,-1000,-1000,-651.367,-845.703,0
1712565396.006,-188.477,-475.098,-550.293,212.402,0
1712565396.01,-971.68,885.742,-523.438,-958.008,0
1712565396.014,974.609,967.773,-604.492,-1000,0
1712565396.018,-276.855,-259.277,-702.637,-257.324,0
1712565396.021,-1000,-1000,-648.926,-843.75,0
1712565396.026,-169.922,-650.391,-542.969,498.535,0
1712565396.03,998.047,691.406,-559.082,-888.184,0
1712565396.034,-945.801,-906.738,-595.703,-1000,0
1712565396.038,-11.719,-76.172,-660.156,-228.027,0
1712565396.041,-1000,-1000,-654.785,-896.973,0
1712565396.045,-341.309,-841.309,-583.008,723.633,0
1712565396.049,930.664,439.941,-545.41,-653.809,0
1712565396.053,-902.344,-828.125,-517.09,-1000,0
1712565396.057,150.879,21.484,-591.797,-215.82,0
1712565396.061,-1000,-1000,-702.148,-963.867,0
1712565396.064,-550.293,-1000,-617.188,923.828,0
1712565396.068,832.031,150.879,-539.062,-345.215,0
1712565396.073,-860.84,-788.574,-579.102,-1000,0
1712565396.077,191.406,112.305,-668.457,-395.508,0
1712565396.081,-1000,-1000,-687.988,915.039,0
1712565396.085,-794.922,-1000,-612.305,-926.758,0
1712565396.088,574.219,-63.965,-553.223,-94.238,0
1712565396.092,-809.57,-795.898,-540.527,-1000,0
1712565396.096,159.18,255.371,-609.375,-530.762,0
1712565396.1,-1000,-986.816,-648.926,816.406,0
1712565396.104,-985.84,-1000,-621.094,-862.305,0
1712565396.107,262.207,-169.922,-581.055,97.656,0
1712565396.111,-769.531,-827.637,-540.039,-1000,0
1712565396.115,270.02,397.461,-595.215,-813.965,0
1712565396.12,-981.934,-902.832,-700.684,522.949,0
1712565396.124,-1000,-1000,-648.926,-799.805,0
1712565396.127,-0.977,-230.469,-554.199,153.809,0
1712565396.131,-785.156,-872.559,-549.316,-1000,0
1712565396.135,412.109,545.41,-611.328,-1000,0
1712565396.139,-908.691,-769.043,-664.062,204.102,0
1712565396.143,-1000,-1000,-584.961,-766.602,0
1712565396.147,-178.223,-295.898,-513.184,141.113,0
1712565396.15,-870.117,-948.242,-581.543,-1000,0
1712565396.154,674.316,759.277,-608.398,-1000,0
1712565396.158,-703.613,-530.762,-649.902,-10.254,0
1712565396.162,-1000,-1000,-654.297,-773.438,0
1712565396.167,-196.777,-390.625,-582.52,223.633,0
1712565396.17,-956.543,952.637,-547.852,-997.07,0
1712565396.174,926.27,937.5,-587.891,-1000,0
1712565396.178,-363.281,-288.574,-683.105,-189.941,0
1712565396.182,-1000,-1000,-658.691,-819.336,0
1712565396.186,-175.293,-570.312,-537.109,442.871,0
1712565396.189,-992.188,784.18,-479.004,-910.645,0
1712565396.193,-963.379,-954.59,-553.223,-1000,0
1712565396.197,-110.352,-142.09,-688.477,-239.258,0
1712565396.201,-1000,-1000,-669.434,-871.582,0
1712565396.205,-275.391,-772.949,-559.082,626.465,0
1712565396.209,957.52,535.156,-520.508,-771.973,0
1712565396.214,-916.992,-852.539,-581.543,-1000,0
1712565396.217,84.473,-6.836,-663.086,-205.078,0
1712565396.221,-1000,-1000,-671.387,-941.406,0
1712565396.225,-449.219,-934.082,-610.84,874.512,0
1712565396.229,882.324,281.25,-539.062,-433.594,0
1712565396.233,-879.883,-793.945,-486.816,-1000,0
1712565396.237,209.961,101.562,-596.191,-274.902,0
1712565396.24,-1000,-1000,-709.961,971.191,0
1712565396.244,-657.715,-1000,-614.258,-955.566,0
1712565396.248,740.723,40.039,-531.25,-120.117,0
1712565396.252,-839.844,-788.086,-560.059,-1000,0
1712565396.256,173.34,205.566,-652.344,-457.52,0
1712565396.261,-1000,-1000,-680.176,872.07,0
1712565396.265,-917.969,-1000,-598.145,-888.184,0
1712565396.268,390.625,-137.207,-558.594,36.621,0
1712565396.272,-782.715,-812.012,-560.059,-1000,0
1712565396.276,182.129,331.543,-606.445,-689.941,0
1712565396.28,-1000,-949.219,-663.086,663.086,0
1712565396.284,-1000,-1000,-605.957,-824.219,0
1712565396.288,93.262,-201.66,-535.156,170.41,0
1712565396.291,-771.973,-856.445,-507.324,-1000,0
1712565396.295,392.578,516.113,-560.059,-926.758,0
1712565396.299,-925.293,-798.34,-678.223,381.836,0
1712565396.303,-1000,-1000,-651.855,-781.25,0
1712565396.308,-50.293,-250.977,-546.875,143.555,0
1712565396.312,-825.195,-916.016,-520.996,-1000,0
1712565396.315,589.844,697.754,-612.793,-1000,0
1712565396.319,-769.043,-598.145,-687.012,75.195,0
1712565396.323,-1000,-1000,-625.488,-766.113,0
1712565396.327,-212.891,-342.773,-530.273,161.133,0
1712565396.331,-921.875,-995.117,-522.949,-1000,0
1712565396.335,810.547,851.562,-585.938,-1000,0
1712565396.338,-541.504,-409.668,-625,-119.629,0
1712565396.342,-1000,-1000,-589.844,-794.434,0
1712565396.346,-180.176,-499.512,-589.355,348.145,0
1712565396.35,-986.328,853.516,-553.711,-948.242,0
1712565396.355,-982.422,-993.652,-576.66,-1000,0
1712565396.359,-185.547,-190.43,-687.5,-249.023,0
1712565396.362,-1000,-1000,-686.523,-857.91,0
1712565396.366,-182.129,-682.129,-593.262,570.312,0
1712565396.37,993.164,653.32,-526.367,-828.125,0
1712565396.374,-938.965,-886.719,-553.711,-1000,0
1712565396.378,26.855,-41.504,-647.461,-218.262,0
1712565396.382,-1000,-1000,-645.02,-913.086,0
1712565396.385,-381.348,-872.559,-579.59,780.762,0
1712565396.389,913.086,390.625,-544.434,-578.125,0
1712565396.393,-893.555,-814.941,-561.035,-1000,0
1712565396.397,179.199,43.945,-629.883,-231.934,0
1712565396.402,-1000,-1000,-647.949,-991.211,0
1712565396.406,-611.816,-1000,-611.816,985.84,0
1712565396.409,781.738,95.215,-566.406,-244.629,0
1712565396.413,-849.609,-787.598,-557.617,-1000,0
1712565396.417,186.035,147.461,-624.023,-384.277,0
1712565396.421,-1000,-1000,-664.551,911.621,0
1712565396.425,-818.359,-1000,-598.633,-911.621,0
1712565396.428,543.457,-85.449,-506.836,-14.648,0
1712565396.432,-804.199,-800.293,-487.793,-1000,0
1712565396.436,155.273,287.598,-653.809,-585.449,0
1712565396.44,-1000,-972.656,-701.66,770.996,0
1712565396.444,-1000,-1000,-612.305,-848.145,0
1712565396.449,219.238,-180.664,-551.758,139.648,0
1712565396.452,-773.926,-842.285,-546.387,-1000,0
1712565396.456,314.453,449.707,-626.953,-880.371,0
1712565396.46,-1000,-932.129,-693.359,554.688,0
1712565396.464,-960.449,-1000,-632.324,-974.609,0
1712565396.468,257.812,41.504,-536.133,-228.516,0
1712565396.472,-815.43,-905.762,-520.508,-1000,0
1712565396.475,461.914,582.52,-570.801,-1000,0
1712565396.479,-867.188,-713.379,-693.848,132.812,0
1712565396.483,-1000,-1000,-663.086,-765.625,0
1712565396.487,-177.246,-304.688,-535.156,142.09,0
1712565396.491,-894.531,-965.332,-511.719,-1000,0
1712565396.495,754.395,806.152,-610.84,-1000,0
1712565396.499,-632.812,-490.723,-697.266,-14.648,0
1712565396.503,-1000,-1000,-647.461,-833.496,0
1712565396.507,-101.562,-338.867,-552.246,198.242,0
1712565396.511,-978.516,922.363,-520.508,-960.449,0
1712565396.514,963.379,953.125,-568.359,-1000,0
1712565396.518,-295.41,-261.23,-622.07,-212.891,0
1712565396.522,-1000,-1000,-604.98,-831.055,0
1712565396.526,-175.293,-620.605,-588.867,481.445,0
1712565396.53,-992.188,735.352,-546.387,-891.602,0
1712565396.534,-961.914,-938.965,-571.777,-1000,0
1712565396.537,-92.285,-132.812,-678.711,-231.934,0
1712565396.542,-1000,-1000,-685.547,-887.207,0
1712565396.546,-328.613,-821.289,-592.773,686.035,0
1712565396.55,933.594,467.773,-535.645,-702.148,0
1712565396.554,-906.25,-839.844,-584.473,-1000,0
1712565396.557,102.539,1.953,-679.199,-203.125,0
1712565396.561,-1000,-1000,-656.25,-956.543,0
1712565396.565,-506.348,-967.285,-554.688,916.504,0
1712565396.569,851.562,218.262,-538.574,-359.863,0
1712565396.573,-868.164,-790.527,-576.172,-1000,0
1712565396.577,197.754,105.957,-643.066,-322.266,0
1712565396.58,-1000,-1000,-677.246,951.172,0
1712565396.584,-759.277,-1000,-623.535,-942.871,0
1712565396.589,621.094,-33.203,-567.871,-101.562,0
1712565396.593,-816.895,-792.969,-559.082,-1000,0
1712565396.596,159.18,213.379,-628.418,-492.676,0
1712565396.6,-1000,-1000,-706.543,847.168,0
1712565396.604,-993.652,-1000,-621.582,-874.023,0
1712565396.608,258.789,-169.922,-497.07,70.801,0
1712565396.612,-770.508,-819.336,-509.277,-1000,0
1712565396.616,196.777,345.703,-645.996,-772.949,0
1712565396.619,-1000,-941.895,-698.73,571.289,0
1712565396.623,-1000,-1000,-609.375,-807.617,0
1712565396.627,60.547,-216.797,-537.109,161.621,0
1712565396.631,-774.414,-862.793,-551.758,-1000,0
1712565396.636,398.926,524.414,-621.094,-976.074,0
1712565396.64,-916.504,-788.574,-686.035,295.898,0
1712565396.643,-1000,-1000,-646.484,-773.438,0
1712565396.647,-113.281,-276.367,-572.266,142.578,0
1712565396.651,-837.402,-925.293,-553.223,-1000,0
1712565396.655,599.609,698.73,-579.59,-1000,0
1712565396.659,-771.973,-599.121,-663.574,40.527,0
1712565396.663,-1000,-1000,-649.414,-768.555,0
1712565396.666,-209.473,-381.348,-557.129,182.617,0
1712565396.67,-932.617,980.469,-519.043,-1000,0
1712565396.674,847.656,871.582,-598.633,-1000,0
1712565396.678,-487.793,-392.578,-685.547,-182.617,0
1712565396.683,-1000,-1000,-638.672,-812.5,0
1712565396.687,-175.781,-532.227,-558.594,388.184,0
1712565396.69,-993.164,820.312,-555.176,-937.988,0
1712565396.694,-966.309,-972.656,-600.586,-1000,0
1712565396.698,-133.301,-165.527,-664.062,-245.117,0
1712565396.702,-1000,-1000,-645.02,-864.258,0
1712565396.706,-218.75,-730.957,-569.336,599.609,0
1712565396.71,980.469,594.727,-549.316,-799.316,0
1712565396.713,-930.664,-873.047,-531.25,-1000,0
1712565396.717,52.734,-37.598,-605.957,-211.426,0
1712565396.721,-1000,-1000,-694.824,-928.223,0
1712565396.725,-430.176,-917.969,-596.68,829.102,0
1712565396.73,889.648,314.453,-525.391,-501.953,0
1712565396.734,-883.301,-806.152,-583.984,-1000,0
1712565396.737,191.406,49.805,-665.527,-273.438,0
1712565396.741,-1000,-1000,-675.293,982.91,0
1712565396.745,-662.109,-1000,-601.562,-979.98,0
1712565396.749,731.445,38.086,-541.016,-186.035,0
1712565396.753,-838.867,-788.086,-548.828,-1000,0
1712565396.757,177.246,168.945,-620.605,-413.086,0
1712565396.76,-1000,-1000,-666.504,895.508,0
1712565396.764,-883.301,-1000,-633.789,-900.391,0
1712565396.768,448.73,-117.188,-583.496,21.973,0
1712565396.772,-790.039,-805.664,-543.945,-1000,0
1712565396.777,155.762,307.617,-614.746,-632.324,0
1712565396.78,-1000,-962.891,-715.82,729.98,0
1712565396.784,-1000,-1000,-645.508,-836.914,0
1712565396.788,118.164,-197.754,-564.453,157.227,0
1712565396.792,-763.672,-841.309,-553.711,-1000,0
1712565396.796,299.805,439.453,-610.352,-908.691,0
1712565396.8,-964.844,-867.676,-693.848,406.25,0
1712565396.803,-1000,-1000,-581.055,-784.18,0
1712565396.807,-83.008,-258.301,-497.07,145.996,0
1712565396.811,-807.129,-898.926,-572.754,-1000,0
1712565396.815,493.652,622.559,-620.117,-1000,0
1712565396.819,-865.723,-688.965,-673.34,112.793,0
1712565396.823,-1000,-1000,-650.879,-765.625,0
1712565396.827,-203.613,-324.219,-583.984,142.09,0
1712565396.831,-907.715,-979.98,-546.387,-1000,0
1712565396.835,776.855,831.055,-588.867,-1000,0
1712565396.839,-583.984,-439.941,-686.523,-68.848,0
1712565396.843,-1000,-1000,-652.832,-784.18,0
1712565396.847,-187.012,-446.777,-546.875,324.707,0
1712565396.85,-972.656,907.227,-503.418,-954.59,0
1712565396.854,978.516,966.309,-579.102,-1000,0
1712565396.858,-269.043,-250.977,-669.922,-238.281,0
1712565396.862,-1000,-1000,-638.672,-841.309,0
1712565396.866,-171.387,-653.809,-553.223,497.559,0
1712565396.87,-998.535,692.383,-557.129,-886.23,0
1712565396.874,-950.195,-917.48,-604.004,-1000,0
1712565396.878,-35.156,-102.539,-659.18,-227.539,0
1712565396.882,-1000,-1000,-662.598,-898.438,0
1712565396.886,-338.379,-845.215,-582.52,729.492,0
1712565396.889,927.734,428.223,-522.949,-646.484,0
1712565396.893,-899.902,-827.148,-513.184,-1000,0
1712565396.897,166.016,26.855,-604.492,-209.473,0
1712565396.901,-1000,-1000,-697.754,-978.516,0
1712565396.905,-527.344,-986.328,-590.332,970.215,0
1712565396.909,849.121,179.199,-532.227,-268.066,0
1712565396.912,-866.699,-788.574,-567.871,-1000,0
1712565396.917,193.359,123.535,-636.719,-347.656,0
1712565396.921,-1000,-1000,-687.988,937.5,0
1712565396.925,-795.898,-1000,-606.934,-929.688,0
1712565396.929,573.73,-63.477,-564.941,-63.965,0
1712565396.932,-808.594,-795.41,-566.406,-1000,0
1712565396.936,155.762,242.676,-618.652,-509.277,0
1712565396.94,-1000,-991.699,-645.996,834.961,0
1712565396.944,-1000,-1000,-605.469,-865.723,0
1712565396.948,217.773,-180.176,-577.148,123.047,0
1712565396.952,-766.602,-827.148,-547.852,-1000,0
1712565396.955,239.258,385.742,-607.422,-789.062,0
1712565396.959,-999.023,-914.062,-703.125,563.965,0
1712565396.964,-1000,-1000,-655.273,-805.664,0
1712565396.968,13.184,-225.586,-558.594,156.738,0
1712565396.971,-783.203,-873.535,-527.344,-1000,0
1712565396.975,424.316,561.035,-613.77,-1000,0
1712565396.979,-901.367,-753.906,-697.266,235.84,0
1712565396.983,-1000,-1000,-594.727,-767.578,0
1712565396.987,-160.156,-290.039,-522.461,140.625,0
1712565396.991,-856.445,-941.406,-573.73,-1000,0
1712565396.994,636.23,739.258,-595.703,-1000,0
1712565396.998,-742.676,-554.199,-650.879,-2.441,0
1712565397.002,-1000,-1000,-670.41,-772.461,0
1712565397.006,-203.613,-404.785,-588.379,212.891,0
1712565397.011,-944.824,953.125,-531.738,-1000,0
1712565397.015,886.719,908.691,-574.707,-1000,0
1712565397.018,-427.734,-335.938,-679.688,-184.57,0
1712565397.022,-1000,-1000,-675.781,-817.383,0
1712565397.026,-173.828,-527.832,-582.031,439.453,0
1712565397.03,-995.117,843.75,-517.09,-911.133,0
1712565397.034,-959.961,-960.449,-554.688,-1000,0
1712565397.038,-105.469,-136.719,-653.32,-238.77,0
1712565397.041,-1000,-1000,-640.625,-873.535,0
1712565397.045,-238.77,-753.418,-561.523,635.254,0
1712565397.049,972.168,564.453,-540.039,-762.695,0
1712565397.053,-923.828,-856.934,-573.242,-1000,0
1712565397.058,82.52,-12.207,-649.414,-205.566,0
1712565397.062,-1000,-1000,-657.715,-938.477,0
1712565397.065,-453.125,-937.988,-607.91,864.746,0
1712565397.069,879.883,277.344,-562.012,-448.242,0
1712565397.073,-878.906,-799.805,-570.312,-1000,0
1712565397.077,208.008,70.801,-624.512,-276.367,0
1712565397.081,-1000,-1000,-674.316,971.68,0
1712565397.085,-678.223,-1000,-621.582,-957.031,0
1712565397.089,718.262,17.09,-489.746,-129.395,0
1712565397.092,-835.938,-789.062,-496.582,-1000,0
1712565397.096,173.828,199.707,-659.668,-432.129,0
1712565397.1,-1000,-1000,-687.5,883.301,0
1712565397.105,-904.297,-1000,-604.004,-890.625,0
1712565397.109,412.598,-131.836,-577.148,60.059,0
1712565397.112,-784.668,-810.547,-569.824,-1000,0
1712565397.116,176.758,329.59,-619.629,-655.762,0
1712565397.12,-1000,-949.219,-678.711,735.352,0
1712565397.124,-1000,-1000,-606.445,-889.16,0
1712565397.128,84.961,-207.031,-536.621,83.008,0
1712565397.132,-767.578,-849.121,-535.156,-1000,0
1712565397.135,316.406,468.75,-593.75,-930.664,0
1712565397.139,-957.031,-842.773,-699.219,372.559,0
1712565397.143,-1000,-1000,-665.527,-781.25,0
1712565397.147,-109.863,-269.043,-541.504,144.531,0
1712565397.152,-816.895,-912.598,-523.926,-1000,0
1712565397.156,521.484,664.062,-633.301,-1000,0
1712565397.16,-847.168,-644.043,-708.008,88.867,0
1712565397.164,-1000,-1000,-657.715,-765.137,0
1712565397.167,-217.773,-339.844,-558.594,163.574,0
1712565397.171,-920.41,-994.629,-513.184,-1000,0
1712565397.175,806.152,854.004,-594.727,-1000,0
1712565397.179,-549.316,-408.691,-641.113,-92.285,0
1712565397.183,-1000,-1000,-611.328,-790.039,0
1712565397.187,-184.082,-486.816,-607.422,348.145,0
1712565397.19,-978.027,869.141,-541.504,-944.824,0
1712565397.194,994.629,992.188,-576.66,-1000,0
1712565397.199,-234.375,-219.727,-692.383,-250.977,0
1712565397.203,-1000,-1000,-678.223,-848.633,0
1712565397.207,-200.195,-692.871,-579.59,524.902,0
1712565397.21,989.746,644.043,-530.273,-871.582,0
1712565397.214,-941.895,-896.973,-574.707,-1000,0
1712565397.218,-14.648,-75.684,-660.156,-222.656,0
1712565397.222,-1000,-1000,-646.484,-907.715,0
1712565397.226,-361.328,-863.77,-566.895,761.23,0
1712565397.23,917.48,399.414,-553.711,-605.469,0
1712565397.233,-895.02,-817.383,-603.516,-1000,0
1712565397.237,187.012,43.945,-647.949,-219.238,0
1712565397.241,-1000,-1000,-633.789,-985.352,0
1712565397.246,-555.176,-1000,-611.816,980.469,0
1712565397.25,834.961,138.184,-573.73,-250.977,0
1712565397.253,-861.816,-787.109,-557.617,-1000,0
1712565397.257,188.477,134.277,-644.531,-368.652,0
1712565397.261,-1000,-1000,-686.035,921.875,0
1712565397.265,-825.684,-1000,-599.609,-917.969,0
1712565397.269,534.18,-89.355,-497.07,-32.227,0
1712565397.273,-802.246,-799.316,-493.652,-1000,0
1712565397.276,152.832,255.859,-647.949,-577.148,0
1712565397.28,-1000,-987.793,-697.754,776.367,0
1712565397.284,-1000,-1000,-615.234,-851.562,0
1712565397.288,188.965,-186.035,-567.383,130.859,0
1712565397.292,-764.648,-832.031,-578.613,-1000,0
1712565397.296,277.344,409.18,-627.441,-803.223,0
1712565397.3,-980.957,-894.531,-682.129,547.363,0
1712565397.304,-1000,-1000,-648.926,-803.711,0
1712565397.308,-10.254,-233.398,-567.871,156.25,0
1712565397.312,-790.527,-880.371,-521.973,-1000,0
1712565397.316,451.172,582.031,-572.266,-1000,0
1712565397.319,-884.277,-732.91,-654.785,232.422,0
1712565397.323,-1000,-1000,-644.531,-767.09,0
1712565397.327,-192.871,-307.617,-553.711,139.16,0
1712565397.331,-871.582,-953.125,-521.484,-1000,0
1712565397.335,661.621,758.301,-619.629,-1000,0
1712565397.339,-722.656,-534.668,-703.613,-21.973,0
1712565397.343,-1000,-1000,-633.301,-779.297,0
1712565397.347,-214.355,-435.547,-535.645,260.254,0
1712565397.351,-915.039,961.426,-569.336,-1000,0
1712565397.355,806.152,853.516,-600.586,-1000,0
1712565397.358,-571.289,-448.242,-613.77,-10.742,0
1712565397.362,-1000,-1000,-582.52,-846.68,0
1712565397.366,-185.059,-602.539,-587.891,488.281,0
1712565397.37,-966.797,785.645,-565.43,-922.852,0
1712565397.374,939.453,966.309,-588.379,-1000,0
1712565397.378,-257.812,-279.785,-669.434,-51.27,0
1712565397.381,-1000,-1000,-673.828,-902.344,0
1712565397.386,-283.691,-789.551,-592.773,675.293,0
1712565397.39,949.219,505.859,-538.086,-708.008,0
1712565397.394,-916.016,-845.703,-590.332,-1000,0
1712565397.398,93.262,0.488,-680.664,-202.148,0
1712565397.402,-1000,-1000,-676.27,-943.359,0
1712565397.405,-498.047,-958.496,-572.754,881.836,0
1712565397.409,855.469,236.328,-531.25,-418.945,0
1712565397.413,-870.117,-792.969,-564.453,-1000,0
1712565397.417,203.125,91.797,-645.508,-305.664,0
1712565397.421,-1000,-1000,-670.41,958.496,0
1712565397.425,-701.172,-1000,-626.953,-948.73,0
1712565397.429,693.359,-7.324,-578.613,-118.652,0
1712565397.433,-830.566,-790.527,-551.27,-1000,0
1712565397.437,170.41,212.891,-611.328,-432.617,0
1712565397.441,-1000,-1000,-697.266,881.348,0
1712565397.445,-924.805,-1000,-638.184,-886.719,0
1712565397.449,378.906,-145.02,-552.734,79.102,0
1712565397.452,-780.273,-814.941,-523.926,-1000,0
1712565397.456,190.43,344.238,-616.699,-715.332,0
1712565397.46,-1000,-939.941,-718.75,641.602,0
1712565397.464,-1000,-1000,-592.285,-819.336,0
1712565397.468,59.57,-216.309,-507.324,165.527,0
1712565397.472,-770.996,-854.98,-567.871,-1000,0
1712565397.476,347.168,486.328,-604.004,-959.961,0
1712565397.48,-941.895,-826.172,-683.594,323.73,0
1712565397.484,-1000,-1000,-653.809,-776.855,0
1712565397.488,-126.465,-279.297,-575.684,144.531,0
1712565397.492,-832.52,-922.852,-549.805,-1000,0
1712565397.496,577.148,689.941,-582.52,-1000,0
1712565397.499,-797.852,-614.258,-649.414,74.707,0
1712565397.503,-1000,-1000,-637.207,-765.137,0
1712565397.507,-210.938,-354.492,-563.965,192.383,0
1712565397.511,-930.664,993.164,-513.184,-1000,0
1712565397.515,840.332,873.047,-615.723,-1000,0
1712565397.519,-498.535,-381.836,-713.379,-123.047,0
1712565397.522,-1000,-1000,-649.414,-798.34,0
1712565397.527,-182.617,-519.043,-566.406,372.07,0
1712565397.531,-979.492,840.332,-568.848,-937.012,0
1712565397.535,-998.047,-993.652,-592.285,-1000,0
1712565397.539,-214.844,-205.078,-675.293,-247.07,0
1712565397.542,-1000,-1000,-665.039,-858.398,0
1712565397.546,-234.863,-732.91,-564.941,572.266,0
1712565397.55,975.586,593.262,-545.41,-826.172,0
1712565397.554,-934.082,-881.836,-523.438,-1000,0
1712565397.558,3.906,-59.082,-611.816,-213.867,0
1712565397.562,-1000,-1000,-700.195,-925.293,0
1712565397.566,-404.785,-892.578,-604.004,821.289,0
1712565397.569,896.484,352.539,-541.504,-517.578,0
1712565397.574,-886.719,-809.082,-599.121,-1000,0
1712565397.578,196.777,55.664,-692.383,-241.211,0
1712565397.582,-1000,-1000,-691.406,-997.07,0
1712565397.585,-616.699,-1000,-610.84,998.047,0
1712565397.589,781.25,86.426,-556.152,-224.121,0
1712565397.593,-848.145,-787.598,-548.34,-1000,0
1712565397.597,177.734,142.578,-619.141,-398.438,0
1712565397.601,-1000,-1000,-663.574,907.715,0
1712565397.605,-893.066,-1000,-629.395,-911.621,0
1712565397.609,435.059,-122.559,-583.984,-30.273,0
1712565397.612,-789.062,-803.711,-553.711,-1000,0
1712565397.616,148.926,271.484,-618.164,-628.418,0
1712565397.621,-1000,-981.934,-697.754,725.586,0
1712565397.625,-1000,-1000,-649.902,-839.355,0
1712565397.628,142.09,-198.242,-522.461,151.367,0
1712565397.632,-763.672,-837.402,-518.555,-1000,0
1712565397.636,292.969,422.363,-636.23,-816.895,0
1712565397.64,-973.145,-883.301,-667.48,541.992,0
1712565397.644,-1000,-1000,-588.379,-801.27,0
1712565397.648,-33.203,-245.605,-508.301,148.926,0
1712565397.652,-795.41,-887.695,-566.895,-1000,0
1712565397.655,466.797,592.773,-625.977,-1000,0
1712565397.659,-875,-718.75,-678.711,143.066,0
1712565397.663,-1000,-1000,-654.297,-765.137,0
1712565397.667,-220.215,-331.543,-588.867,140.137,0
1712565397.671,-885.742,-967.285,-565.918,-1000,0
1712565397.675,689.941,774.414,-605.957,-1000,0
1712565397.679,-696.289,-518.066,-700.684,-67.871,0
1712565397.683,-1000,-1000,-669.434,-782.715,0
1712565397.687,-193.848,-453.125,-551.758,295.898,0
1712565397.691,-963.867,896.973,-498.535,-968.75,0
1712565397.694,947.754,937.988,-572.266,-1000,0
1712565397.698,-324.219,-281.738,-692.383,-230.469,0
1712565397.702,-1000,-1000,-668.457,-837.402,0
1712565397.706,-170.898,-626.465,-576.172,494.629,0
1712565397.71,-999.512,724.609,-570.801,-886.719,0
1712565397.714,-950.684,-928.223,-607.91,-1000,0
1712565397.718,-40.527,-113.281,-657.715,-229.004,0
1712565397.722,-1000,-1000,-671.387,-893.555,0
1712565397.726,-333.984,-834.961,-604.004,709.961,0
1712565397.73,937.012,449.219,-541.504,-671.387,0
1712565397.733,-907.227,-837.402,-531.25,-1000,0
1712565397.737,102.539,-0.977,-624.512,-209.961,0
1712565397.741,-1000,-1000,-699.707,-962.891,0
1712565397.745,-528.809,-987.305,-604.98,928.711,0
1712565397.749,837.402,175.781,-545.41,-340.82,0
1712565397.753,-863.77,-790.039,-575.195,-1000,0
1712565397.757,196.289,105.469,-667.969,-334.473,0
1712565397.761,-1000,-1000,-687.988,942.383,0
1712565397.765,-755.859,-1000,-595.703,-934.082,0
1712565397.769,625.488,-34.18,-565.918,-75.684,0
1712565397.773,-818.359,-792.48,-582.031,-1000,0
1712565397.777,164.062,240.723,-633.301,-477.051,0
1712565397.78,-1000,-992.676,-669.434,853.516,0
1712565397.784,-960.938,-1000,-616.211,-872.559,0
1712565397.788,315.43,-160.156,-546.387,124.023,0
1712565397.792,-773.438,-820.801,-532.227,-1000,0
1712565397.796,208.496,362.305,-592.285,-763.672,0
1712565397.8,-1000,-928.711,-693.848,595.215,0
1712565397.804,-1000,-1000,-652.832,-811.523,0
1712565397.808,24.902,-224.609,-538.086,159.18,0
1712565397.812,-778.32,-864.258,-522.461,-1000,0
1712565397.816,392.578,519.531,-624.023,-998.047,0
1712565397.82,-922.363,-795.41,-700.195,257.324,0
1712565397.824,-1000,-1000,-631.348,-770.508,0
1712565397.828,-124.023,-278.809,-520.996,144.043,0
1712565397.831,-845.703,-933.105,-541.504,-1000,0
1712565397.835,627.93,726.074,-614.258,-1000,0
1712565397.839,-743.164,-567.383,-667.48,49.805,0
1712565397.843,-1000,-1000,-638.672,-767.578,0
1712565397.847,-205.078,-365.723,-563.965,207.52,0
1712565397.851,-940.43,981.934,-542.969,-1000,0
1712565397.855,875,895.508,-577.637,-1000,0
1712565397.859,-446.777,-351.074,-678.711,-141.602,0
1712565397.863,-1000,-1000,-669.922,-805.176,0
1712565397.867,-178.711,-545.898,-593.262,414.062,0
1712565397.871,-986.328,812.988,-530.762,-918.945,0
1712565397.874,-979.98,-977.539,-555.176,-1000,0
1712565397.878,-166.992,-181.641,-658.203,-240.234,0
1712565397.882,-1000,-1000,-659.668,-873.047,0
1712565397.886,-240.234,-742.188,-521.484,635.742,0
1712565397.89,968.75,579.59,-495.605,-761.719,0
1712565397.894,-923.828,-868.164,-604.004,-1000,0
1712565397.898,65.918,-28.809,-629.883,-206.055,0
1712565397.902,-1000,-1000,-639.648,-937.012,0
1712565397.906,-417.969,-904.785,-618.652,862.305,0
1712565397.91,895.508,332.031,-570.312,-458.008,0
1712565397.914,-885.254,-804.199,-578.613,-1000,0
1712565397.918,212.402,71.777,-648.926,-237.793,0
1712565397.921,-1000,-1000,-654.785,991.699,0
1712565397.925,-652.344,-1000,-589.844,-973.633,0
1712565397.929,746.094,51.27,-509.277,-150.879,0
1712565397.933,-841.309,-788.574,-527.344,-1000,0
1712565397.937,174.805,168.457,-674.316,-422.363,0
1712565397.941,-1000,-1000,-695.312,893.555,0
1712565397.944,-906.738,-1000,-609.375,-900.391,0
1712565397.949,414.062,-128.906,-570.312,22.949,0
1712565397.953,-786.133,-806.641,-572.754,-1000,0
1712565397.957,146.973,299.805,-619.141,-600.586,0
1712565397.961,-1000,-968.75,-661.133,777.832,0
1712565397.964,-1000,-1000,-617.188,-843.262,0
1712565397.968,117.188,-199.219,-532.227,164.062,0
1712565397.972,-764.648,-844.238,-516.113,-1000,0
1712565397.976,317.871,456.543,-583.984,-881.836,0
1712565397.98,-960.449,-854.004,-685.547,445.801,0
1712565397.984,-1000,-1000,-658.691,-789.062,0
1712565397.987,-58.105,-253.418,-557.129,145.02,0
1712565397.991,-803.223,-897.949,-531.738,-1000,0
1712565397.996,489.746,621.582,-622.07,-1000,0
1712565398,-862.793,-686.523,-706.543,97.168,0
1712565398.004,-1000,-1000,-653.32,-765.137,0
1712565398.008,-226.074,-333.984,-566.406,141.602,0
1712565398.012,-900.879,-993.164,-547.852,-1000,0
1712565398.015,737.305,767.09,-589.844,-1000,0
1712565398.019,-640.625,-490.723,-633.789,-79.59,0
1712565398.023,-1000,-1000,-611.816,-785.156,0
1712565398.027,-188.477,-475.098,-595.703,309.57,0
1712565398.031,-972.656,887.207,-553.223,-963.379,0
1712565398.035,977.051,965.82,-588.379,-1000,0
1712565398.039,-271.973,-262.207,-686.523,-235.84,0
1712565398.043,-1000,-1000,-696.289,-842.285,0
1712565398.047,-171.387,-656.25,-604.004,517.578,0
1712565398.051,-998.047,691.406,-541.504,-873.047,0
1712565398.054,-951.172,-919.922,-600.586,-1000,0
1712565398.058,-37.109,-109.375,-677.246,-224.609,0
1712565398.062,-1000,-1000,-655.762,-903.32,0
1712565398.066,-351.562,-856.445,-552.734,747.559,0
1712565398.07,927.734,417.969,-534.18,-625.488,0
1712565398.074,-902.832,-833.984,-596.191,-1000,0
1712565398.078,116.211,-3.418,-639.16,-208.496,0
1712565398.081,-1000,-1000,-645.02,-970.215,0
1712565398.085,-543.457,-1000,-614.746,948.242,0
1712565398.09,830.566,146.973,-588.379,-306.152,0
1712565398.093,-860.84,-788.086,-559.082,-1000,0
1712565398.097,192.871,116.699,-616.699,-336.914,0
1712565398.101,-1000,-1000,-695.312,935.547,0
1712565398.105,-781.738,-1000,-638.672,-924.805,0
1712565398.109,591.797,-63.965,-519.043,-33.691,0
1712565398.113,-812.012,-795.41,-508.301,-1000,0
1712565398.117,158.203,248.535,-650.391,-519.043,0
1712565398.12,-1000,-989.746,-700.195,831.055,0
1712565398.124,-1000,-1000,-605.469,-864.258,0
1712565398.128,244.629,-174.805,-550.293,119.141,0
1712565398.132,-767.09,-824.219,-574.219,-1000,0
1712565398.137,212.402,363.281,-624.023,-808.594,0
1712565398.14,-1000,-927.734,-684.57,536.133,0
1712565398.144,-1000,-1000,-648.438,-802.246,0
1712565398.148,-18.066,-237.793,-582.52,155.762,0
1712565398.152,-784.18,-870.117,-556.152,-1000,0
1712565398.156,401.855,528.32,-596.191,-1000,0
1712565398.16,-916.504,-785.645,-671.387,226.074,0
1712565398.164,-1000,-1000,-650.391,-767.09,0
1712565398.167,-172.363,-299.805,-562.988,140.625,0
1712565398.171,-858.887,-942.383,-529.785,-1000,0
1712565398.175,638.672,729.98,-613.77,-1000,0
1712565398.179,-742.676,-565.918,-702.637,-3.418,0
1712565398.184,-1000,-1000,-649.414,-772.461,0
1712565398.187,-205.566,-403.32,-561.035,214.844,0
1712565398.191,-938.477,961.914,-555.176,-1000,0
1712565398.195,868.652,888.184,-584.961,-1000,0
1712565398.199,-456.055,-375.488,-671.387,-183.105,0
1712565398.203,-1000,-1000,-633.789,-815.918,0
1712565398.207,-178.711,-592.773,-565.43,421.875,0
1712565398.211,-986.816,769.531,-568.359,-920.898,0
1712565398.214,-979.98,-973.633,-551.758,-1000,0
1712565398.218,-163.086,-197.266,-622.07,-240.234,0
1712565398.222,-1000,-1000,-703.613,-872.07,0
1712565398.226,-261.719,-774.902,-594.727,632.324,0
1712565398.231,961.426,534.18,-517.578,-766.113,0
1712565398.234,-920.898,-863.77,-599.121,-1000,0
1712565398.238,64.941,-36.133,-690.918,-205.566,0
1712565398.242,-1000,-1000,-693.848,-939.453,0
1712565398.246,-439.453,-930.176,-596.68,868.652,0
1712565398.25,884.766,291.504,-532.227,-443.848,0
1712565398.254,-880.859,-801.758,-566.895,-1000,0
1712565398.258,208.496,61.523,-626.953,-268.555,0
1712565398.261,-1000,-1000,-640.137,980.957,0
1712565398.265,-686.523,-1000,-617.188,-971.191,0
1712565398.269,709.473,10.254,-576.172,-158.203,0
1712565398.273,-833.984,-790.527,-556.641,-1000,0
1712565398.277,171.387,169.434,-629.395,-457.031,0
1712565398.281,-1000,-1000,-701.66,869.141,0
1712565398.285,-922.852,-1000,-627.441,-888.672,0
1712565398.289,386.719,-143.066,-556.641,32.227,0
1712565398.293,-784.18,-811.523,-557.129,-1000,0
1712565398.297,170.41,315.43,-617.188,-687.5,0
1712565398.301,-1000,-982.422,-684.082,693.848,0
1712565398.304,-1000,-1000,-581.055,-883.301,0
1712565398.308,187.988,-116.211,-480.469,75.684,0
1712565398.312,-777.832,-858.398,-561.523,-1000,0
1712565398.316,342.285,468.75,-627.93,-908.203,0
1712565398.32,-941.895,-839.844,-671.387,406.738,0
1712565398.324,-1000,-1000,-644.043,-784.18,0
1712565398.328,-98.145,-267.09,-571.777,144.043,0
1712565398.332,-814.453,-907.227,-556.152,-1000,0
1712565398.336,509.277,641.602,-610.352,-1000,0
1712565398.34,-879.395,-693.848,-699.219,101.562,0
1712565398.344,-1000,-1000,-643.555,-822.266,0
1712565398.347,-133.789,-265.137,-535.645,62.012,0
1712565398.351,-921.875,998.047,-484.863,-1000,0
1712565398.355,773.926,822.754,-577.148,-1000,0
1712565398.359,-590.332,-454.59,-712.402,-113.77,0
1712565398.363,-1000,-1000,-642.578,-792.48,0
1712565398.367,-184.082,-479.98,-511.719,347.168,0
1712565398.371,-979.98,874.023,-530.273,-948.73,0
1712565398.375,999.512,987.305,-615.723,-1000,0
1712565398.379,-230.469,-222.168,-673.34,-237.793,0
1712565398.383,-1000,-1000,-663.574,-844.727,0
1712565398.387,-172.363,-679.199,-599.609,523.438,0
1712565398.39,-999.023,664.062,-547.852,-870.117,0
1712565398.394,-948.242,-907.227,-527.832,-1000,0
1712565398.398,-19.043,-93.75,-619.141,-222.656,0
1712565398.402,-1000,-1000,-698.242,-907.227,0
1712565398.406,-375,-871.582,-609.863,758.301,0
1712565398.41,914.551,391.113,-547.363,-607.422,0
1712565398.414,-895.508,-824.707,-583.984,-1000,0
1712565398.418,147.949,19.043,-674.805,-232.91,0
1712565398.422,-1000,-1000,-673.828,-986.816,0
1712565398.426,-547.852,-1000,-573.73,975.098,0
1712565398.429,833.496,147.461,-553.711,-268.555,0
1712565398.433,-861.816,-787.109,-577.148,-1000,0
1712565398.437,192.383,132.324,-624.512,-343.262,0
1712565398.441,-1000,-1000,-632.812,934.57,0
1712565398.445,-784.668,-1000,-589.355,-923.828,0
1712565398.449,587.891,-65.918,-568.359,-33.691,0
1712565398.453,-810.547,-796.875,-553.223,-1000,0
1712565398.456,155.273,256.348,-615.234,-532.715,0
1712565398.46,-1000,-985.352,-692.383,817.383,0
1712565398.465,-1000,-1000,-636.719,-859.863,0
1712565398.468,211.914,-183.105,-542.48,127.93,0
1712565398.472,-765.137,-827.148,-521.973,-1000,0
1712565398.476,223.145,375.977,-632.812,-838.867,0
1712565398.48,-1000,-919.922,-695.312,495.117,0
1712565398.484,-1000,-1000,-590.332,-797.363,0
1712565398.488,-14.16,-235.84,-497.559,155.273,0
1712565398.492,-786.621,-875.977,-548.34,-1000,0
1712565398.495,430.176,558.594,-631.836,-1000,0
1712565398.499,-899.902,-755.859,-657.715,222.656,0
1712565398.503,-1000,-1000,-630.371,-766.602,0
1712565398.507,-169.434,-298.828,-594.238,140.625,0
1712565398.512,-868.652,-948.242,-547.852,-1000,0
1712565398.515,674.316,752.93,-592.285,-1000,0
1712565398.519,-702.148,-537.598,-696.777,-2.441,0
1712565398.523,-1000,-1000,-667.969,-772.949,0
1712565398.527,-201.66,-414.551,-563.477,252.93,0
1712565398.531,-944.336,948.242,-503.418,-983.398,0
1712565398.535,888.184,908.691,-563.477,-1000,0
1712565398.539,-425.781,-345.215,-666.992,-191.406,0
1712565398.542,-1000,-1000,-639.648,-821.289,0
1712565398.546,-174.316,-592.773,-558.594,443.359,0
1712565398.55,-994.629,762.207,-558.594,-910.645,0
1712565398.554,-962.402,-955.566,-601.562,-1000,0
1712565398.559,-109.863,-153.32,-655.273,-236.816,0
1712565398.562,-1000,-1000,-657.227,-878.906,0
1712565398.566,-251.465,-773.438,-604.004,658.691,0
1712565398.57,964.844,533.691,-552.246,-736.328,0
1712565398.574,-918.945,-851.074,-563.477,-1000,0
1712565398.578,100.586,-3.418,-630.859,-201.66,0
1712565398.582,-1000,-1000,-671.387,-945.801,0
1712565398.586,-450.195,-937.012,-617.188,889.16,0
1712565398.589,883.789,280.762,-495.605,-410.156,0
1712565398.593,-880.371,-797.852,-515.137,-1000,0
1712565398.597,208.008,80.566,-671.387,-284.668,0
1712565398.601,-1000,-1000,-662.598,969.727,0
1712565398.606,-686.035,-1000,-589.844,-955.566,0
1712565398.609,709.473,11.23,-559.57,-128.906,0
1712565398.613,-833.984,-790.039,-568.359,-1000,0
1712565398.617,172.363,188.965,-646.484,-431.641,0
1712565398.621,-1000,-1000,-677.734,881.836,0
1712565398.625,-914.062,-1000,-588.867,-889.16,0
1712565398.629,396.973,-140.137,-543.945,71.777,0
1712565398.633,-783.203,-811.523,-545.898,-1000,0
1712565398.636,187.5,331.055,-590.82,-649.414,0
1712565398.64,-1000,-950.195,-683.594,718.75,0
1712565398.644,-1000,-1000,-645.02,-833.984,0
1712565398.648,103.516,-203.613,-540.527,173.34,0
1712565398.652,-768.066,-849.121,-541.504,-1000,0
1712565398.656,346.191,473.145,-620.117,-915.527,0
1712565398.66,-940.918,-838.379,-664.062,400.879,0
1712565398.664,-1000,-1000,-626.953,-783.203,0
1712565398.668,-105.957,-268.066,-552.734,144.531,0
1712565398.672,-814.453,-906.25,-503.906,-1000,0
1712565398.676,505.859,634.277,-586.914,-1000,0
1712565398.679,-859.863,-674.316,-646.484,89.355,0
1712565398.683,-1000,-1000,-595.703,-765.137,0
1712565398.687,-220.215,-358.398,-584.961,153.809,0
1712565398.691,-915.039,-996.094,-545.41,-1000,0
1712565398.695,787.598,834.961,-587.402,-1000,0
1712565398.699,-574.707,-441.895,-675.293,-104.004,0
1712565398.703,-1000,-1000,-664.062,-792.48,0
1712565398.707,-184.082,-486.816,-584.473,361.328,0
1712565398.711,-979.98,861.816,-549.805,-940.43,0
1712565398.715,998.535,978.516,-588.379,-1000,0
1712565398.719,-227.051,-223.145,-657.715,-240.723,0
1712565398.722,-1000,-1000,-653.32,-848.145,0
1712565398.726,-202.148,-691.406,-542.969,534.18,0
1712565398.73,989.746,650.391,-526.855,-861.816,0
1712565398.734,-943.359,-902.344,-602.051,-1000,0
1712565398.738,-14.648,-89.355,-653.809,-221.68,0
1712565398.742,-1000,-1000,-657.227,-908.203,0
1712565398.746,-395.508,-880.859,-614.746,764.16,0
1712565398.75,902.344,376.465,-566.406,-601.074,0
1712565398.754,-889.648,-820.801,-560.547,-1000,0
1712565398.758,169.922,25.391,-653.809,-221.68,0
1712565398.762,-1000,-1000,-683.594,-988.77,0
1712565398.765,-556.641,-1000,-576.66,988.281,0
1712565398.769,832.031,132.812,-494.141,-239.746,0
1712565398.773,-860.84,-786.621,-496.582,-1000,0
1712565398.777,190.43,137.207,-644.043,-354.492,0
1712565398.781,-1000,-1000,-695.312,930.176,0
1712565398.785,-806.641,-1000,-606.934,-921.875,0
1712565398.789,559.57,-71.289,-558.105,-33.691,0
1712565398.793,-805.664,-796.875,-572.754,-1000,0
1712565398.797,152.832,253.906,-633.789,-527.344,0
1712565398.801,-1000,-986.328,-672.852,824.707,0
1712565398.804,-1000,-1000,-636.719,-862.305,0
1712565398.808,182.129,-188.965,-557.617,129.395,0
1712565398.812,-762.695,-827.637,-529.785,-1000,0
1712565398.816,222.656,375,-581.055,-795.41,0
1712565398.82,-1000,-922.852,-668.457,558.105,0
1712565398.824,-1000,-1000,-659.18,-805.176,0
1712565398.828,-20.996,-235.84,-555.664,155.762,0
1712565398.831,-789.062,-876.953,-508.789,-1000,0
1712565398.835,444.824,564.941,-590.332,-1000,0
1712565398.84,-891.602,-750.977,-700.684,229.492,0
1712565398.843,-1000,-1000,-638.672,-767.578,0
1712565398.847,-171.875,-293.457,-542.48,141.602,0
1712565398.851,-867.676,-946.777,-558.105,-1000,0
1712565398.855,666.504,754.883,-607.91,-1000,0
1712565398.859,-711.914,-533.691,-626.953,11.719,0
1712565398.863,-1000,-1000,-603.516,-770.996,0
1712565398.867,-201.66,-417.969,-585.449,232.91,0
1712565398.871,-945.801,945.312,-556.152,-990.723,0
1712565398.874,892.09,913.574,-586.914,-1000,0
1712565398.878,-420.41,-340.332,-681.152,-188.965,0
1712565398.882,-1000,-1000,-686.523,-820.312,0
1712565398.887,-173.828,-592.773,-579.59,446.777,0
1712565398.891,-995.117,759.766,-511.719,-907.715,0
1712565398.894,-960.449,-950.684,-583.008,-1000,0
1712565398.898,-101.562,-142.578,-686.035,-237.305,0
1712565398.902,-1000,-1000,-666.504,-877.441,0
1712565398.906,-260.742,-770.996,-545.898,652.344,0
1712565398.91,961.914,539.062,-517.578,-744.141,0
1712565398.914,-917.969,-850.098,-583.008,-1000,0
1712565398.918,101.562,-1.953,-653.32,-203.613,0
1712565398.921,-1000,-1000,-657.227,-941.895,0
1712565398.925,-473.145,-952.637,-609.863,876.465,0
1712565398.929,871.582,256.348,-563.477,-427.734,0
1712565398.934,-875,-797.363,-545.41,-1000,0
1712565398.937,201.66,70.801,-627.441,-303.223,0
1712565398.941,-1000,-1000,-699.219,962.402,0
1712565398.945,-741.699,-1000,-624.023,-954.102,0
1712565398.949,643.066,-11.23,-538.086,-136.23,0
1712565398.953,-822.266,-791.016,-532.715,-1000,0
1712565398.957,168.457,187.012,-611.328,-447.754,0
1712565398.961,-1000,-1000,-680.664,872.07,0
1712565398.965,-929.688,-1000,-565.918,-885.742,0
1712565398.968,372.559,-140.625,-492.188,68.848,0
1712565398.972,-780.273,-812.012,-577.148,-1000,0
1712565398.976,185.547,334.961,-627.441,-655.762,0
1712565398.981,-1000,-946.777,-681.152,712.402,0
1712565398.984,-1000,-1000,-645.508,-834.961,0
1712565398.988,80.566,-208.496,-572.266,175.781,0
1712565398.992,-768.555,-849.121,-563.477,-1000,0
1712565398.996,333.496,470.215,-609.863,-849.609,0
1712565399,-947.754,-843.262,-660.645,502.441,0
1712565399.004,-1000,-1000,-630.371,-795.41,0
1712565399.008,-123.047,-271.973,-543.945,144.043,0
1712565399.011,-817.383,-909.18,-512.695,-1000,0
1712565399.015,509.277,644.043,-618.652,-1000,0
1712565399.019,-859.863,-667.48,-707.52,82.52,0
1712565399.023,-1000,-1000,-632.324,-766.113,0
1712565399.027,-219.238,-343.262,-542.48,154.785,0
1712565399.031,-917.969,-993.652,-554.688,-1000,0
1712565399.035,798.34,847.656,-603.027,-1000,0
1712565399.039,-560.547,-419.922,-664.551,-89.355,0
1712565399.043,-1000,-1000,-646.484,-789.062,0
1712565399.047,-183.594,-481.934,-566.406,348.145,0
1712565399.051,-979.492,873.535,-535.156,-946.777,0
1712565399.054,998.047,990.234,-539.551,-1000,0
1712565399.058,-227.539,-220.703,-622.07,-231.445,0
1712565399.062,-1000,-1000,-686.035,-843.75,0
1712565399.066,-201.172,-691.406,-571.777,523.438,0
1712565399.07,990.723,647.949,-535.156,-869.141,0
1712565399.074,-942.871,-898.926,-597.656,-1000,0
1712565399.078,-17.09,-80.566,-688.965,-222.656,0
1712565399.082,-1000,-1000,-673.34,-907.715,0
1712565399.086,-377.441,-869.141,-582.52,762.207,0
1712565399.09,910.156,393.066,-542.48,-605.469,0
1712565399.094,-892.09,-820.312,-542.48,-1000,0
1712565399.097,181.641,34.18,-621.582,-206.543,0
1712565399.101,-1000,-1000,-637.207,-981.934,0
1712565399.105,-555.176,-1000,-604.492,981.445,0
1712565399.109,834.473,142.578,-581.543,-248.047,0
1712565399.113,-861.816,-786.133,-554.688,-1000,0
1712565399.117,189.453,140.625,-623.535,-338.867,0
1712565399.121,-1000,-1000,-686.523,935.547,0
1712565399.125,-818.848,-1000,-607.91,-922.852,0
1712565399.129,543.457,-78.613,-531.25,-21.973,0
1712565399.133,-803.223,-797.852,-539.551,-1000,0
1712565399.137,151.855,256.348,-623.535,-537.598,0
1712565399.14,-1000,-986.328,-658.691,818.848,0
1712565399.144,-1000,-1000,-566.895,-858.887,0
1712565399.148,174.316,-187.5,-503.418,145.508,0
1712565399.152,-763.184,-830.078,-575.684,-1000,0
1712565399.156,258.301,395.996,-632.324,-799.316,0
1712565399.16,-989.258,-906.25,-670.41,557.129,0
1712565399.164,-1000,-1000,-638.672,-812.012,0
1712565399.168,-10.742,-237.793,-574.219,180.176,0
1712565399.172,-790.527,-863.77,-548.34,-1000,0
1712565399.176,459.961,536.621,-599.121,-858.887,0
1712565399.179,-881.836,-810.547,-676.758,523.926,0
1712565399.183,-1000,-1000,-619.629,-789.551,0
1712565399.187,-173.828,-292.969,-534.668,134.277,0
1712565399.191,-865.723,-948.242,-491.211,-1000,0
1712565399.195,656.25,753.418,-570.801,-1000,0
1712565399.199,-725.098,-538.086,-712.891,-4.395,0
1712565399.203,-1000,-1000,-659.668,-772.949,0
1712565399.207,-201.66,-407.715,-550.293,231.934,0
1712565399.21,-947.266,949.219,-547.852,-994.141,0
1712565399.215,896.484,918.945,-607.91,-1000,0
1712565399.219,-413.574,-327.637,-663.086,-175.781,0
1712565399.222,-1000,-1000,-650.391,-816.406,0
1712565399.226,-173.828,-579.102,-598.633,444.336,0
1712565399.23,-995.117,772.461,-542.48,-907.715,0
1712565399.234,-960.449,-949.219,-523.926,-1000,0
1712565399.238,-103.516,-134.277,-594.727,-237.305,0
1712565399.242,-1000,-1000,-672.363,-877.441,0
1712565399.246,-252.93,-767.09,-599.609,652.832,0
1712565399.249,965.82,543.945,-529.785,-743.652,0
1712565399.253,-919.922,-851.562,-587.891,-1000,0
1712565399.257,95.703,-1.465,-686.523,-203.613,0
1712565399.262,-1000,-1000,-674.805,-941.406,0
1712565399.266,-462.891,-941.895,-576.66,875,0
1712565399.269,876.465,274.902,-554.199,-433.105,0
1712565399.273,-877.441,-797.852,-589.844,-1000,0
1712565399.277,205.566,76.172,-644.043,-274.902,0
1712565399.281,-1000,-1000,-663.086,970.215,0
1712565399.285,-700.684,-1000,-582.52,-947.754,0
1712565399.289,693.359,3.418,-532.715,-140.625,0
1712565399.293,-831.055,-789.551,-561.523,-1000,0
1712565399.296,171.387,195.801,-588.379,-327.148,0
1712565399.3,-1000,-1000,-661.621,881.348,0
1712565399.304,-918.457,-1000,-634.766,-892.578,0
1712565399.309,389.648,-139.16,-537.598,73.242,0
1712565399.312,-781.738,-811.523,-534.18,-1000,0
1712565399.316,188.477,333.008,-636.23,-652.344,0
1712565399.32,-1000,-948.242,-702.148,714.844,0
1712565399.324,-1000,-1000,-623.047,-833.008,0
1712565399.328,80.078,-208.008,-535.156,173.34,0
1712565399.332,-769.043,-849.609,-543.457,-1000,0
1712565399.336,341.309,474.121,-639.16,-916.016,0
1712565399.34,-944.336,-839.355,-660.645,399.902,0
1712565399.343,-1000,-1000,-581.055,-783.691,0
1712565399.347,-117.676,-270.02,-579.102,145.02,0
1712565399.351,-818.848,-910.645,-555.664,-1000,0
1712565399.356,522.461,653.809,-577.148,-1000,0
1712565399.359,-845.703,-654.297,-674.316,99.121,0
1712565399.363,-1000,-1000,-665.527,-766.113,0
1712565399.367,-206.055,-325.684,-568.848,171.387,0
1712565399.371,-947.266,959.473,-529.785,-1000,0
1712565399.375,642.578,758.301,-574.219,-1000,0
1712565399.379,-637.207,-410.645,-642.578,10.742,0
1712565399.383,-1000,-1000,-622.07,-800.293,0
1712565399.386,-188.477,-475.098,-540.039,382.812,0
1712565399.39,-981.934,882.324,-551.758,-924.805,0
1712565399.394,999.023,990.234,-612.793,-1000,0
1712565399.398,-226.562,-214.844,-664.062,-238.281,0
1712565399.402,-1000,-1000,-644.531,-846.68,0
1712565399.406,-199.219,-685.059,-585.938,520.996,0
1712565399.41,990.234,656.738,-550.781,-872.07,0
1712565399.414,-942.871,-900.879,-564.941,-1000,0
1712565399.418,-13.672,-80.078,-645.508,-222.168,0
1712565399.422,-1000,-1000,-655.762,-909.668,0
1712565399.426,-372.559,-862.305,-593.75,768.066,0
1712565399.43,912.598,405.273,-501.465,-598.633,0
1712565399.433,-893.066,-819.824,-518.066,-1000,0
1712565399.437,185.059,41.016,-684.57,-201.66,0
1712565399.441,-1000,-1000,-690.43,-980.469,0
1712565399.445,-549.316,-995.117,-588.867,982.422,0
1712565399.449,838.379,164.551,-563.965,-244.629,0
1712565399.453,-862.793,-786.133,-592.773,-1000,0
1712565399.457,189.941,139.648,-637.207,-332.52,0
1712565399.461,-1000,-1000,-667.48,937.988,0
1712565399.465,-815.43,-1000,-627.441,-922.363,0
1712565399.469,547.852,-76.172,-558.594,-19.531,0
1712565399.473,-804.199,-797.363,-538.086,-1000,0
1712565399.476,153.32,252.93,-573.242,-483.398,0
1712565399.48,-1000,-988.281,-661.621,854.004,0
1712565399.484,-1000,-1000,-646.484,-871.094,0
1712565399.488,192.871,-183.105,-542.969,142.578,0
1712565399.492,-765.137,-830.566,-539.551,-1000,0
1712565399.496,273.438,405.273,-636.719,-788.574,0
1712565399.5,-984.375,-898.926,-701.66,569.336,0
1712565399.504,-1000,-1000,-616.211,-808.105,0
1712565399.508,3.418,-225.586,-529.785,161.621,0
1712565399.512,-789.551,-879.395,-550.293,-1000,0
1712565399.515,458.984,587.891,-602.539,-975.586,0
1712565399.519,-880.371,-726.074,-626.465,297.852,0
1712565399.523,-1000,-1000,-590.82,-772.461,0
1712565399.527,-175.293,-295.41,-564.941,140.137,0
1712565399.531,-866.211,-947.754,-526.855,-1000,0
1712565399.535,656.738,755.859,-586.914,-1000,0
1712565399.539,-724.609,-535.645,-684.082,5.371,0
1712565399.543,-1000,-1000,-666.504,-771.973,0
1712565399.547,-201.172,-411.621,-572.754,244.141,0
1712565399.551,-947.754,945.801,-529.785,-987.793,0
1712565399.555,898.438,921.387,-591.309,-1000,0
1712565399.558,-410.156,-323.73,-686.523,-178.711,0
1712565399.562,-1000,-1000,-642.09,-822.754,0
1712565399.566,-173.828,-569.336,-507.324,488.77,0
1712565399.57,-997.07,781.25,-503.906,-878.906,0
1712565399.574,-952.637,-946.289,-603.027,-1000,0
1712565399.578,-118.164,-135.254,-668.457,-211.426,0
1712565399.582,-1000,-1000,-651.855,-938.965,0
1712565399.585,-171.875,-746.094,-574.219,568.359,0
1712565399.59,954.102,534.668,-539.551,-711.914,0
1712565399.594,-920.898,-853.027,-561.523,-1000,0
1712565399.597,85.938,-11.719,-644.043,-206.055,0
1712565399.601,-1000,-1000,-695.801,-942.871,0
1712565399.605,-476.562,-951.66,-615.234,880.371,0
1712565399.609,866.211,257.324,-496.094,-424.316,0
1712565399.613,-874.023,-799.316,-515.625,-1000,0
1712565399.617,205.078,67.383,-660.645,-282.227,0
1712565399.621,-1000,-1000,-682.129,970.215,0
1712565399.624,-694.824,-1000,-574.219,-955.078,0
1712565399.628,700.195,13.184,-533.691,-127.93,0
1712565399.632,-832.52,-789.062,-580.566,-1000,0
1712565399.637,171.875,193.359,-634.277,-422.363,0
1712565399.641,-1000,-1000,-672.363,886.719,0
1712565399.644,-915.527,-1000,-608.887,-889.648,0
1712565399.648,395.508,-137.207,-545.898,80.566,0
1712565399.652,-782.715,-811.035,-556.641,-1000,0
1712565399.656,176.27,326.66,-606.445,-645.02,0
1712565399.66,-1000,-952.637,-652.832,726.074,0
1712565399.664,-1000,-1000,-622.07,-835.449,0
1712565399.668,80.078,-208.496,-562.012,166.016,0
1712565399.671,-767.578,-848.145,-523.926,-1000,0
1712565399.675,318.848,462.402,-620.605,-930.176,0
1712565399.679,-956.055,-849.121,-706.055,374.512,0
1712565399.684,-1000,-1000,-622.559,-780.762,0
1712565399.688,-113.77,-267.578,-538.086,145.02,0
1712565399.691,-815.918,-910.156,-547.852,-1000,0
1712565399.695,515.137,655.273,-618.652,-1000,0
1712565399.699,-854.98,-653.32,-663.086,113.281,0
1712565399.703,-1000,-1000,-601.562,-821.777,0
1712565399.707,-219.238,-346.191,-532.227,81.055,0
1712565399.711,-916.504,-993.652,-530.762,-1000,0
1712565399.715,792.48,843.75,-553.223,-1000,0
1712565399.718,-568.359,-427.734,-617.676,-39.551,0
1712565399.722,-1000,-1000,-669.434,-780.762,0
1712565399.726,-185.059,-487.305,-583.496,342.285,0
1712565399.731,-976.562,871.582,-533.203,-941.406,0
1712565399.734,989.258,984.863,-591.797,-1000,0
1712565399.738,-243.164,-233.398,-692.383,-245.117,0
1712565399.742,-1000,-1000,-666.504,-846.68,0
1712565399.746,-208.008,-688.965,-567.871,519.531,0
1712565399.75,988.281,650.879,-525.391,-874.023,0
1712565399.754,-943.848,-902.832,-562.988,-1000,0
1712565399.758,-26.367,-89.844,-644.531,-223.145,0
1712565399.762,-1000,-1000,-625.977,-906.25,0
1712565399.765,-381.836,-875,-586.914,757.812,0
1712565399.769,907.715,385.742,-583.496,-610.352,0
1712565399.773,-892.578,-821.289,-560.059,-1000,0
1712565399.777,169.434,26.855,-631.836,-214.844,0
1712565399.781,-1000,-1000,-702.148,-981.934,0
1712565399.785,-558.594,-1000,-626.465,975.098,0
1712565399.789,830.078,131.836,-546.875,-259.766,0
1712565399.793,-859.863,-787.598,-545.41,-1000,0
1712565399.797,187.5,115.723,-623.535,-362.305,0
1712565399.801,-1000,-1000,-670.41,924.805,0
1712565399.805,-834.473,-1000,-568.359,-920.41,0
1712565399.808,522.461,-86.426,-507.812,-33.691,0
1712565399.812,-800.781,-797.852,-589.355,-1000,0
1712565399.816,152.832,238.281,-637.695,-568.359,0
1712565399.82,-1000,-994.629,-677.734,787.109,0
1712565399.824,-1000,-1000,-634.766,-854.004,0
1712565399.828,192.871,-187.5,-575.195,124.023,0
1712565399.832,-764.648,-828.125,-558.594,-1000,0
1712565399.836,252.441,386.719,-605.469,-791.992,0
1712565399.84,-992.188,-914.062,-676.27,561.035,0
1712565399.844,-1000,-1000,-609.863,-805.176,0
1712565399.848,-2.441,-231.445,-531.738,155.273,0
1712565399.851,-786.621,-875.488,-509.277,-1000,0
1712565399.855,431.152,562.012,-600.098,-1000,0
1712565399.859,-896.973,-753.418,-705.078,217.773,0
1712565399.863,-1000,-1000,-635.742,-766.602,0
1712565399.867,-184.57,-297.363,-540.039,140.625,0
1712565399.871,-864.258,-944.336,-552.734,-1000,0
1712565399.875,645.02,739.746,-607.422,-1000,0
1712565399.879,-739.258,-553.711,-654.785,-4.883,0
1712565399.883,-1000,-1000,-644.531,-772.949,0
1712565399.887,-202.148,-411.621,-580.566,231.445,0
1712565399.891,-946.777,947.266,-532.715,-999.023,0
1712565399.894,894.531,917.969,-536.621,-1000,0
1712565399.898,-416.016,-331.055,-619.141,-138.672,0
1712565399.902,-1000,-1000,-670.898,-808.594,0
1712565399.906,-173.828,-570.801,-590.332,449.219,0
1712565399.91,-995.605,778.809,-539.551,-898.926,0
1712565399.914,-960.938,-948.242,-587.891,-1000,0
1712565399.918,-101.074,-128.906,-692.871,-236.816,0
1712565399.922,-1000,-1000,-676.27,-876.465,0
1712565399.926,-261.23,-766.602,-573.73,647.461,0
1712565399.93,965.332,549.316,-556.152,-749.023,0
1712565399.933,-921.875,-857.422,-585.938,-1000,0
1712565399.937,77.637,-18.066,-646.973,-203.613,0
1712565399.941,-1000,-1000,-642.578,-942.871,0
1712565399.945,-474.121,-948.73,-556.152,878.906,0
1712565399.949,867.188,258.789,-549.316,-427.246,0
1712565399.953,-874.023,-797.852,-567.871,-1000,0
1712565399.957,205.566,76.172,-631.348,-270.996,0
1712565399.961,-1000,-1000,-685.059,973.633,0
1712565399.965,-691.406,-1000,-620.117,-956.055,0
1712565399.969,704.102,15.625,-533.691,-123.535,0
1712565399.972,-833.008,-788.086,-535.645,-1000,0
1712565399.976,172.363,202.148,-650.879,-420.41,0
1712565399.98,-1000,-1000,-693.848,889.16,0
1712565399.984,-911.133,-1000,-556.641,-891.602,0
1712565399.988,402.344,-131.348,-480.469,73.73,0
1712565399.992,-783.691,-810.059,-555.176,-1000,0
1712565399.996,175.293,327.637,-612.305,-647.949,0
1712565400,-1000,-951.172,-680.664,721.68,0
1712565400.003,-1000,-1000,-617.188,-834.961,0
1712565400.007,81.543,-207.031,-539.062,166.504,0
1712565400.012,-767.578,-847.168,-558.105,-1000,0
1712565400.016,319.336,460.938,-617.188,-914.551,0
1712565400.019,-957.031,-851.562,-702.148,399.902,0
1712565400.023,-1000,-1000,-647.461,-783.203,0
1712565400.027,-104.492,-263.672,-550.781,145.508,0
1712565400.031,-816.406,-910.156,-516.113,-1000,0
1712565400.035,525.879,660.645,-573.242,-1000,0
1712565400.039,-842.285,-647.949,-677.734,102.539,0
1712565400.043,-1000,-1000,-637.695,-764.16,0
1712565400.047,-218.262,-333.496,-541.504,166.992,0
1712565400.05,-916.992,-988.77,-537.109,-1000,0
1712565400.054,794.434,845.703,-582.031,-1000,0
1712565400.059,-565.43,-419.434,-664.062,-81.055,0
1712565400.063,-1000,-1000,-639.648,-788.086,0
1712565400.066,-185.547,-488.281,-576.172,341.309,0
1712565400.07,-974.609,871.582,-554.688,-948.242,0
1712565400.074,985.352,982.422,-569.824,-1000,0
1712565400.078,-251.465,-238.77,-625.977,-237.793,0
1712565400.082,-1000,-1000,-657.715,-845.215,0
1712565400.086,-201.172,-687.988,-597.656,523.926,0
1712565400.09,988.281,648.926,-488.77,-869.629,0
1712565400.093,-940.918,-900.391,-520.508,-1000,0
1712565400.097,-12.695,-70.312,-695.801,-228.516,0
1712565400.101,-1000,-1000,-682.129,-892.578,0
1712565400.106,-354.004,-810.547,-575.684,718.75,0
1712565400.109,919.434,483.398,-545.898,-677.734,0
1712565400.113,-889.648,-826.172,-575.195,-1000,0
1712565400.117,169.922,45.898,-664.062,-208.496,0
1712565400.121,-1000,-1000,-666.016,-964.844,0
1712565400.125,-468.262,-1000,-567.871,928.711,0
1712565400.129,823.242,144.043,-520.02,-329.59,0
1712565400.133,-861.328,-787.109,-541.016,-1000,0
1712565400.137,190.918,130.371,-625,-326.172,0
1712565400.14,-1000,-1000,-694.336,940.43,0
1712565400.144,-822.754,-1000,-632.812,-927.246,0
1712565400.148,538.086,-83.496,-537.109,-30.762,0
1712565400.153,-803.223,-798.34,-541.016,-1000,0
1712565400.156,155.273,253.906,-653.32,-541.016,0
1712565400.16,-1000,-988.77,-700.195,810.547,0
1712565400.164,-1000,-1000,-604.004,-859.375,0
1712565400.168,217.285,-179.688,-521.484,134.766,0
1712565400.172,-766.602,-829.59,-531.25,-1000,0
1712565400.176,269.043,402.344,-613.77,-784.668,0
1712565400.18,-985.84,-899.902,-644.043,573.242,0
1712565400.183,-1000,-1000,-578.613,-807.617,0
1712565400.187,7.324,-228.027,-566.406,156.738,0
1712565400.191,-785.645,-874.512,-556.152,-1000,0
1712565400.195,429.199,562.5,-615.234,-1000,0
1712565400.199,-896.973,-752.93,-697.754,239.746,0
1712565400.203,-1000,-1000,-662.109,-769.531,0
1712565400.207,-190.918,-305.664,-554.688,147.461,0
1712565400.211,-850.586,-932.617,-525.391,-1000,0
1712565400.215,600.098,697.754,-591.309,-1000,0
1712565400.219,-807.129,-619.629,-649.902,89.355,0
1712565400.223,-1000,-1000,-624.512,-783.691,0
1712565400.226,-201.66,-404.297,-514.16,269.531,0
1712565400.23,-950.195,949.219,-513.184,-977.051,0
1712565400.234,901.367,919.922,-611.816,-1000,0
1712565400.238,-405.762,-322.754,-669.922,-167.969,0
1712565400.242,-1000,-1000,-645.02,-817.871,0
1712565400.246,-173.828,-571.289,-585.449,458.496,0
1712565400.25,-994.629,781.738,-556.641,-898.438,0
1712565400.254,-960.938,-953.125,-565.918,-1000,0
1712565400.258,-102.051,-139.648,-663.086,-235.352,0
1712565400.262,-1000,-1000,-675.293,-880.371,0
1712565400.266,-269.531,-779.297,-574.219,662.598,0
1712565400.269,961.914,532.715,-498.047,-731.445,0
1712565400.273,-920.41,-859.375,-518.066,-1000,0
1712565400.277,75.195,-26.367,-688.965,-203.125,0
1712565400.281,-1000,-1000,-689.453,-941.406,0
1712565400.285,-469.238,-944.336,-580.078,876.465,0
1712565400.289,870.117,265.137,-557.617,-431.641,0
1712565400.293,-875,-797.363,-579.102,-1000,0
1712565400.297,206.543,79.59,-642.578,-268.066,0
1712565400.301,-1000,-1000,-660.156,971.68,0
1712565400.305,-689.453,-1000,-601.074,-946.777,0
1712565400.308,732.422,34.18,-548.34,-136.23,0
1712565400.312,-891.113,-844.727,-538.086,-1000,0
1712565400.316,83.984,114.746,-587.891,-304.688,0
1712565400.32,-1000,-996.094,-654.785,893.066,0
1712565400.324,-917.48,-1000,-641.113,-896.973,0
1712565400.328,391.113,-138.184,-554.688,73.242,0
1712565400.332,-782.715,-810.547,-540.527,-1000,0
1712565400.336,173.34,326.66,-632.812,-669.922,0
1712565400.34,-1000,-952.148,-694.824,694.824,0
1712565400.344,-1000,-1000,-597.656,-830.566,0
1712565400.348,77.637,-208.008,-526.367,165.527,0
1712565400.351,-768.555,-848.633,-553.223,-1000,0
1712565400.355,332.031,468.262,-610.84,-910.645,0
1712565400.359,-951.172,-844.727,-630.371,405.762,0
1712565400.363,-1000,-1000,-576.66,-784.668,0
1712565400.367,-100.098,-264.16,-568.848,146.973,0
1712565400.371,-819.824,-911.621,-557.129,-1000,0
1712565400.375,541.016,666.504,-595.703,-1000,0
1712565400.378,-827.637,-642.09,-679.688,118.652,0
1712565400.382,-1000,-1000,-658.203,-764.16,0
1712565400.387,-218.75,-336.914,-563.965,168.945,0
1712565400.391,-914.062,-986.816,-528.809,-1000,0
1712565400.395,784.18,834.961,-597.168,-1000,0
1712565400.398,-579.102,-438.477,-681.641,-83.984,0
1712565400.402,-1000,-1000,-637.695,-789.062,0
1712565400.406,-186.523,-485.352,-556.152,347.656,0
1712565400.41,-973.145,875.977,-520.02,-945.312,0
1712565400.414,979.98,976.074,-569.336,-1000,0
1712565400.418,-263.184,-250.488,-668.945,-242.188,0
1712565400.422,-1000,-1000,-659.18,-846.191,0
1712565400.425,-192.871,-682.129,-586.426,521.484,0
1712565400.429,990.234,653.32,-547.363,-872.07,0
1712565400.434,-940.918,-897.949,-568.359,-1000,0
1712565400.438,-7.324,-70.801,-636.719,-221.68,0
1712565400.441,-1000,-1000,-682.617,-912.109,0
1712565400.445,-351.562,-852.539,-608.887,777.344,0
1712565400.449,923.828,418.945,-529.785,-585.938,0
1712565400.453,-897.949,-818.848,-536.133,-1000,0
1712565400.457,182.617,42.48,-641.113,-201.66,0
1712565400.461,-1000,-1000,-677.246,-987.305,0
1712565400.465,-556.641,-1000,-553.223,999.512,0
1712565400.469,833.496,148.926,-492.676,-210.449,0
1712565400.472,-860.84,-786.621,-584.961,-1000,0
1712565400.476,189.453,129.395,-639.16,-347.656,0
1712565400.481,-1000,-1000,-669.922,934.57,0
1712565400.485,-817.383,-1000,-621.094,-922.852,0
1712565400.488,545.41,-81.055,-574.707,-30.273,0
1712565400.492,-804.199,-798.34,-561.523,-1000,0
1712565400.496,155.273,258.301,-590.82,-504.395,0
1712565400.5,-1000,-986.816,-656.25,839.355,0
1712565400.504,-1000,-1000,-601.074,-865.723,0
1712565400.508,215.82,-179.688,-529.297,149.414,0
1712565400.512,-767.09,-830.566,-533.203,-1000,0
1712565400.515,282.227,411.133,-609.375,-779.297,0
1712565400.519,-979.98,-894.043,-694.336,583.008,0
1712565400.523,-1000,-1000,-631.836,-809.082,0
1712565400.528,7.324,-226.074,-541.016,156.738,0
1712565400.531,-786.133,-874.512,-556.641,-1000,0
1712565400.535,430.176,562.988,-611.328,-1000,0
1712565400.539,-895.996,-752.441,-669.434,235.84,0
1712565400.543,-1000,-1000,-615.723,-769.043,0
1712565400.547,-189.941,-300.781,-533.691,144.043,0
1712565400.551,-866.211,-946.777,-548.34,-1000,0
1712565400.555,647.461,744.141,-566.895,-1000,0
1712565400.559,-737.793,-552.734,-628.906,48.34,0
1712565400.562,-1000,-1000,-673.34,-767.578,0
1712565400.566,-200.684,-399.414,-580.078,248.047,0
1712565400.57,-951.172,949.707,-541.016,-985.84,0
1712565400.574,908.691,930.176,-581.543,-1000,0
1712565400.578,-394.531,-303.223,-672.363,-145.996,0
1712565400.582,-1000,-1000,-662.598,-812.988,0
1712565400.586,-174.316,-542.48,-564.453,464.355,0
1712565400.59,-993.652,772.461,-553.711,-891.113,0
1712565400.594,-961.426,982.422,-572.754,-1000,0
1712565400.598,-106.445,-134.277,-636.23,-235.352,0
1712565400.601,-1000,-1000,-636.23,-877.441,0
1712565400.605,-260.742,-773.926,-578.125,649.902,0
1712565400.609,964.844,541.992,-563.477,-746.582,0
1712565400.613,-920.898,-857.422,-568.359,-1000,0
1712565400.617,77.637,-19.043,-644.531,-203.125,0
1712565400.621,-1000,-1000,-692.383,-943.848,0
1712565400.625,-456.543,-939.941,-622.07,883.789,0
1712565400.629,877.441,272.949,-530.273,-422.852,0
1712565400.633,-877.93,-797.363,-526.367,-1000,0
1712565400.637,208.496,84.961,-636.719,-245.117,0
1712565400.641,-1000,-1000,-672.363,977.051,0
1712565400.644,-665.039,-1000,-557.129,-950.195,0
1712565400.648,732.422,37.598,-499.023,-80.566,0
1712565400.652,-838.379,-787.109,-579.102,-1000,0
1712565400.656,173.828,203.125,-643.555,-416.992,0
1712565400.66,-1000,-1000,-678.223,895.508,0
1712565400.664,-908.691,-1000,-632.812,-893.066,0
1712565400.668,407.227,-136.23,-576.66,74.219,0
1712565400.672,-784.18,-810.547,-560.059,-1000,0
1712565400.676,171.387,324.219,-605.469,-644.043,0
1712565400.68,-1000,-954.59,-696.777,724.609,0
1712565400.684,-1000,-1000,-633.789,-834.961,0
1712565400.687,79.102,-208.496,-521.484,174.805,0
1712565400.691,-769.043,-849.609,-498.535,-1000,0
1712565400.695,337.891,473.145,-570.801,-907.715,0
1712565400.699,-949.707,-840.332,-674.805,412.598,0
1712565400.703,-1000,-1000,-638.184,-785.645,0
1712565400.707,-86.914,-257.812,-550.781,146.973,0
1712565400.711,-820.801,-912.109,-550.781,-1000,0
1712565400.715,554.688,676.758,-627.93,-1000,0
1712565400.719,-811.035,-626.465,-682.129,119.629,0
1712565400.723,-1000,-1000,-625.977,-765.137,0
1712565400.726,-218.262,-340.82,-577.637,178.711,0
1712565400.73,-914.062,-988.77,-559.57,-1000,0
1712565400.734,782.715,836.426,-547.852,-1000,0
1712565400.738,-581.055,-437.012,-621.094,-27.832,0
1712565400.742,-1000,-1000,-676.27,-780.273,0
1712565400.746,-185.547,-491.699,-587.402,349.121,0
1712565400.75,-975.586,869.629,-530.273,-937.012,0
1712565400.754,987.305,980.469,-585.938,-1000,0
1712565400.757,-250.488,-243.164,-687.988,-241.211,0
1712565400.762,-1000,-1000,-668.457,-849.609,0
1712565400.766,-181.641,-671.387,-562.012,540.527,0
1712565400.77,994.141,666.504,-547.363,-855.469,0
1712565400.773,-943.359,-899.414,-587.891,-1000,0
1712565400.777,-6.348,-69.824,-656.25,-219.727,0
1712565400.781,-1000,-1000,-658.203,-913.574,0
1712565400.785,-354.004,-858.398,-586.426,785.156,0
1712565400.789,923.34,413.086,-542.969,-578.125,0
1712565400.793,-897.949,-822.266,-565.43,-1000,0
1712565400.797,173.34,31.738,-635.254,-185.059,0
1712565400.801,-1000,-1000,-689.453,-976.074,0
1712565400.804,-556.152,-1000,-610.84,982.422,0
1712565400.809,832.031,139.648,-521.973,-237.305,0
1712565400.813,-862.793,-789.551,-554.688,-1000,0
1712565400.817,196.777,132.812,-655.762,-348.145,0
1712565400.82,-1000,-1000,-703.613,953.125,0
1712565400.824,-756.348,-1000,-608.887,-978.027,0
1712565400.828,639.648,14.648,-519.531,-108.887,0
1712565400.832,-816.406,-808.105,-547.363,-1000,0
1712565400.836,157.227,260.254,-651.855,-502.93,0
1712565400.84,-1000,-983.398,-654.297,838.867,0
1712565400.844,-996.582,-1000,-567.871,-866.699,0
1712565400.847,241.211,-174.316,-549.805,152.344,0
1712565400.851,-768.555,-830.078,-532.227,-1000,0
1712565400.856,279.297,407.715,-615.723,-763.672,0
1712565400.86,-977.539,-895.508,-700.195,602.539,0
1712565400.863,-1000,-1000,-634.277,-812.5,0
1712565400.867,20.02,-229.98,-534.668,157.715,0
1712565400.871,-842.285,-875,-537.109,-1000,0
1712565400.875,333.496,561.523,-598.633,-1000,0
1712565400.879,-891.602,-754.883,-679.199,240.723,0
1712565400.883,-1000,-1000,-639.648,-768.555,0
1712565400.887,-182.617,-296.387,-524.414,142.09,0
1712565400.891,-869.629,-948.73,-522.949,-1000,0
1712565400.894,670.898,758.301,-619.141,-1000,0
1712565400.898,-708.496,-531.738,-669.434,17.09,0
1712565400.903,-1000,-1000,-634.766,-771.484,0
1712565400.906,-196.777,-394.531,-578.125,275.391,0
1712565400.91,-958.008,949.219,-547.852,-978.516,0
1712565400.914,930.664,940.43,-578.125,-1000,0
1712565400.918,-355.957,-284.18,-638.672,-135.254,0
1712565400.922,-1000,-1000,-619.141,-814.453,0
1712565400.926,-174.316,-561.523,-564.453,487.305,0
1712565400.93,-993.652,790.039,-491.699,-875.488,0
1712565400.934,-960.449,-948.73,-530.273,-1000,0
1712565400.937,-99.609,-124.512,-687.5,-231.934,0
1712565400.941,-1000,-1000,-673.34,-882.812,0
1712565400.945,-265.137,-771.484,-570.801,668.457,0
1712565400.949,962.402,540.527,-547.363,-724.609,0
1712565400.953,-918.457,-852.539,-590.332,-1000,0
1712565400.957,86.914,-5.859,-644.043,-198.73,0
1712565400.961,-1000,-1000,-648.926,-952.637,0
1712565400.965,-448.73,-934.082,-595.215,912.109,0
1712565400.969,882.812,281.738,-532.227,-378.906,0
1712565400.973,-879.883,-794.434,-550.781,-1000,0
1712565400.977,209.961,98.633,-633.789,-225.586,0
1712565400.98,-1000,-1000,-665.527,987.305,0
1712565400.984,-654.297,-1000,-598.633,-955.566,0
1712565400.988,743.652,43.945,-538.574,-89.844,0
1712565400.992,-840.82,-787.598,-538.574,-1000,0
1712565400.996,173.828,212.402,-640.625,-405.762,0
1712565401,-1000,-1000,-707.031,898.926,0
1712565401.004,-914.062,-1000,-590.332,-894.043,0
1712565401.008,397.461,-130.371,-509.277,83.984,0
1712565401.012,-783.691,-811.035,-557.129,-1000,0
1712565401.016,180.176,332.52,-615.723,-618.652,0
1712565401.02,-1000,-948.242,-643.066,751.953,0
1712565401.023,-1000,-1000,-541.016,-841.797,0
1712565401.027,102.051,-200.195,-536.621,181.152,0
1712565401.031,-770.508,-853.516,-552.734,-1000,0
1712565401.035,377.441,503.906,-599.609,-860.352,0
1712565401.039,-932.617,-811.523,-681.152,482.422,0
1712565401.043,-1000,-1000,-638.184,-794.922,0
1712565401.047,-50.781,-247.559,-544.922,150.391,0
1712565401.051,-823.242,-915.039,-520.996,-1000,0
1712565401.055,583.496,700.684,-617.676,-1000,0
1712565401.059,-777.344,-597.656,-691.895,160.156,0
1712565401.062,-1000,-1000,-630.371,-764.16,0
1712565401.066,-203.125,-323.242,-499.512,210.938,0
1712565401.07,-925.781,-991.211,-497.559,-1000,0
1712565401.074,830.566,867.188,-605.469,-1000,0
1712565401.078,-509.766,-381.348,-658.203,-26.855,0
1712565401.082,-1000,-1000,-634.766,-783.691,0
1712565401.086,-179.688,-468.75,-574.707,392.578,0
1712565401.09,-986.816,875.977,-551.758,-921.387,0
1712565401.094,-978.516,-990.234,-564.453,-1000,0
1712565401.098,-180.664,-171.387,-623.535,-190.43,0
1712565401.102,-1000,-1000,-655.762,-855.469,0
1712565401.105,-167.969,-639.648,-582.031,611.328,0
1712565401.109,993.652,697.754,-492.676,-776.855,0
1712565401.113,-932.129,-885.742,-522.461,-1000,0
1712565401.117,62.5,-9.277,-668.945,-205.566,0
1712565401.121,-1000,-1000,-681.641,-941.406,0
1712565401.125,-317.871,-815.43,-554.199,877.93,0
1712565401.129,942.383,473.145,-504.883,-441.895,0
1712565401.132,-901.367,-816.406,-572.754,-1000,0
1712565401.137,225.586,91.309,-652.344,-174.316,0
1712565401.141,-1000,-1000,-653.809,-993.652,0
1712565401.145,-501.465,-968.262,-578.613,-960.449,0
1712565401.148,874.023,218.262,-543.945,-114.746,0
1712565401.152,-876.465,-787.598,-529.785,-1000,0
1712565401.156,207.031,201.66,-579.59,-214.844,0
1712565401.16,-1000,-1000,-638.672,972.656,0
1712565401.164,-658.691,-1000,-569.824,-917.48,0
1712565401.168,733.398,21.973,-500.977,145.508,0
1712565401.172,-839.844,-799.805,-512.695,-1000,0
1712565401.176,229.98,343.75,-617.676,-398.926,0
1712565401.179,-1000,-937.5,-687.988,916.504,0
1712565401.184,-854.004,-1000,-590.82,-891.602,0
1712565401.188,480.957,-115.234,-508.789,218.262,0
1712565401.192,-799.316,-838.867,-531.738,-1000,0
1712565401.195,363.281,498.535,-603.027,-583.496,0
1712565401.199,-949.707,-812.5,-654.785,812.988,0
1712565401.203,-1000,-1000,-569.336,-857.422,0
1712565401.207,105.957,-189.941,-517.09,189.453,0
1712565401.211,-786.621,-885.254,-549.316,-1000,0
1712565401.215,488.281,645.508,-562.988,-807.617,0
1712565401.219,-859.863,-659.18,-623.047,551.758,0
1712565401.223,-1000,-1000,-646.484,-802.734,0
1712565401.226,-88.379,-257.324,-549.316,201.66,0
1712565401.231,-875.977,-950.684,-504.883,-1000,0
1712565401.235,747.07,818.848,-581.055,-1000,0
1712565401.238,-592.773,-441.406,-681.152,149.902,0
1712565401.242,-1000,-1000,-642.578,-770.996,0
1712565401.246,-189.453,-351.562,-548.34,376.465,0
1712565401.25,-967.773,970.215,-529.297,-933.594,0
1712565401.254,964.844,952.637,-564.941,-1000,0
1712565401.258,-295.41,-238.281,-640.137,-22.949,0
1712565401.262,-1000,-1000,-623.535,-806.641,0
1712565401.266,-175.781,-549.805,-565.918,524.902,0
1712565401.269,-991.699,804.199,-545.898,-828.613,0
1712565401.273,-960.449,-950.684,-541.504,-1000,0
1712565401.278,-99.609,-120.605,-638.184,-208.984,0
1712565401.282,-1000,-1000,-677.734,-904.785,0
1712565401.285,-270.02,-774.414,-598.145,762.695,0
1712565401.289,960.938,536.621,-517.09,-604.492,0
1712565401.293,-919.434,-853.516,-539.062,-1000,0
1712565401.297,81.055,-10.742,-639.16,-185.547,0
1712565401.301,-1000,-1000,-655.273,-976.074,0
1712565401.305,-470.703,-943.848,-559.082,987.305,0
1712565401.309,870.117,266.602,-501.465,-246.582,0
1712565401.313,-875,-796.387,-589.844,-1000,0
1712565401.316,205.078,80.566,-667.48,-213.867,0
1712565401.32,-1000,-1000,-677.734,990.234,0
1712565401.325,-699.707,-1000,-620.605,-948.242,0
1712565401.328,694.336,-0.488,-571.777,-47.852,0
1712565401.332,-829.102,-790.527,-548.34,-1000,0
1712565401.336,164.062,176.758,-632.324,-396.973,0
1712565401.34,-1000,-1000,-685.059,903.809,0
1712565401.344,-978.516,-1000,-591.309,-893.555,0
1712565401.348,295.898,-159.18,-529.297,111.328,0
1712565401.352,-772.949,-811.035,-519.043,-1000,0
1712565401.355,142.09,289.551,-618.652,-655.273,0
1712565401.359,-1000,-975.098,-720.215,720.215,0
1712565401.363,-1000,-1000,-635.742,-834.961,0
1712565401.367,41.016,-224.609,-549.316,174.316,0
1712565401.371,-772.949,-850.098,-578.613,-1000,0
1712565401.375,315.918,448.73,-649.414,-919.922,0
1712565401.379,-1000,-910.156,-682.617,453.125,0
1712565401.383,-1000,-1000,-629.395,-891.602,0
1712565401.387,49.805,-104.004,-566.895,-31.738,0
1712565401.391,-832.031,-922.852,-541.504,-1000,0
1712565401.395,482.422,607.91,-567.871,-1000,0
1712565401.398,-871.582,-700.684,-641.602,149.902,0
1712565401.402,-1000,-1000,-676.758,-763.672,0
1712565401.406,-229.004,-380.371,-590.332,166.504,0
1712565401.41,-893.555,-993.164,-547.363,-1000,0
1712565401.414,709.961,786.621,-609.375,-1000,0
1712565401.418,-673.828,-517.578,-709.961,-105.469,0
1712565401.422,-1000,-1000,-667.969,-794.434,0
1712565401.426,-201.172,-529.785,-561.523,359.863,0
1712565401.43,-942.383,847.656,-561.523,-963.867,0
1712565401.434,882.324,960.938,-605.469,-1000,0
1712565401.438,-420.898,-302.246,-663.574,-151.367,0
1712565401.441,-1000,-1000,-618.652,-863.281,0
1712565401.445,-221.68,-718.262,-541.016,556.641,0
1712565401.449,979.98,615.234,-554.199,-837.402,0
1712565401.453,-945.312,-907.227,-593.262,-1000,0
1712565401.457,-41.016,-116.211,-661.133,-219.238,0
1712565401.461,-1000,-1000,-693.848,-912.598,0
1712565401.465,-412.109,-896.484,-616.699,778.809,0
1712565401.469,898.438,352.051,-543.457,-582.031,0
1712565401.473,-892.578,-825.195,-570.801,-1000,0
1712565401.477,99.609,-2.441,-683.594,-222.656,0
1712565401.48,-1000,-1000,-700.684,-991.211,0
1712565401.484,-635.742,-1000,-562.012,993.652,0
1712565401.488,738.281,67.383,-509.277,-228.027,0
1712565401.492,-839.844,-790.527,-595.215,-1000,0
1712565401.496,178.223,104.004,-676.758,-373.535,0
1712565401.5,-1000,-1000,-674.316,920.41,0
1712565401.504,-876.465,-1000,-571.289,-917.48,0
1712565401.508,460.938,-111.328,-553.711,-30.273,0
1712565401.512,-791.992,-800.293,-567.871,-1000,0
1712565401.516,149.902,236.328,-625,-544.922,0
1712565401.52,-1000,-997.07,-696.777,807.129,0
1712565401.524,-1000,-1000,-645.02,-857.422,0
1712565401.527,159.18,-196.289,-564.941,133.789,0
1712565401.531,-762.207,-826.66,-525.879,-1000,0
1712565401.535,203.613,358.398,-609.375,-833.984,0
1712565401.539,-1000,-932.129,-697.754,504.395,0
1712565401.543,-1000,-1000,-640.625,-796.875,0
1712565401.547,-69.824,-261.719,-546.875,151.367,0
1712565401.551,-790.039,-872.559,-560.059,-1000,0
1712565401.555,385.742,505.371,-644.043,-1000,0
1712565401.559,-925.293,-810.547,-689.453,167.969,0
1712565401.563,-1000,-1000,-622.07,-766.113,0
1712565401.567,-228.516,-331.055,-559.57,143.066,0
1712565401.57,-866.211,-950.195,-566.895,-1000,0
1712565401.574,621.094,712.402,-601.074,-1000,0
1712565401.578,-774.414,-596.191,-641.602,-10.254,0
1712565401.582,-1000,-1000,-645.02,-773.438,0
1712565401.586,-206.543,-439.453,-606.934,237.305,0
1712565401.59,-938.965,937.5,-524.902,-989.746,0
1712565401.594,868.652,896.484,-547.363,-1000,0
1712565401.598,-456.055,-378.418,-704.59,-201.66,0
1712565401.601,-1000,-1000,-683.594,-821.777,0
1712565401.606,-179.688,-625.488,-591.309,432.129,0
1712565401.61,-984.863,739.746,-571.289,-918.457,0
1712565401.614,-987.793,-969.238,-613.281,-1000,0
1712565401.617,-172.363,-210.449,-685.547,-239.258,0
1712565401.621,-1000,-1000,-659.18,-873.535,0
1712565401.625,-325.684,-819.824,-567.871,636.23,0
1712565401.629,937.5,472.168,-539.551,-761.23,0
1712565401.633,-916.016,-858.887,-576.66,-1000,0
1712565401.637,33.203,-52.246,-644.043,-204.59,0
1712565401.641,-1000,-1000,-680.664,-941.406,0
1712565401.645,-494.141,-965.332,-617.676,873.047,0
1712565401.648,850.098,222.168,-550.781,-432.129,0
1712565401.653,-868.652,-798.828,-581.055,-1000,0
1712565401.657,191.895,59.57,-687.988,-308.594,0
1712565401.66,-1000,-1000,-703.613,960.449,0
1712565401.664,-749.023,-1000,-588.379,-954.59,0
1712565401.668,632.812,-20.02,-532.227,-137.207,0
1712565401.672,-818.359,-791.992,-561.035,-1000,0
1712565401.676,160.156,167.48,-639.648,-477.539,0
1712565401.68,-1000,-1000,-656.738,860.352,0
1712565401.684,-992.676,-1000,-583.008,-885.254,0
1712565401.688,269.043,-167.48,-588.379,19.531,0
1712565401.691,-771.484,-812.5,-579.102,-1000,0
1712565401.695,143.066,292.48,-621.582,-735.84,0
1712565401.7,-1000,-974.121,-704.59,606.445,0
1712565401.703,-1000,-1000,-664.062,-814.453,0
1712565401.707,42.48,-227.051,-564.941,151.367,0
1712565401.711,-769.043,-849.121,-544.434,-1000,0
1712565401.715,312.988,447.266,-638.184,-966.797,0
1712565401.719,-958.984,-862.793,-688.965,308.594,0
1712565401.723,-1000,-1000,-625.488,-774.414,0
1712565401.727,-139.16,-289.062,-533.203,143.066,0
1712565401.731,-817.383,-907.715,-549.805,-1000,0
1712565401.734,492.188,611.328,-642.578,-1000,0
1712565401.738,-873.047,-705.078,-687.012,52.734,0
1712565401.742,-1000,-1000,-648.926,-769.043,0
1712565401.746,-229.98,-395.02,-590.332,140.625,0
1712565401.75,-890.137,998.047,-590.82,-1000,0
1712565401.754,694.824,784.18,-592.285,-1000,0
1712565401.758,-692.383,-526.855,-649.414,-161.621,0
1712565401.762,-1000,-1000,-673.828,-801.758,0
1712565401.766,-194.336,-552.734,-582.52,314.941,0
1712565401.77,-962.891,823.73,-511.719,-969.727,0
1712565401.774,942.871,967.773,-548.34,-1000,0
1712565401.777,-323.242,-300.781,-705.078,-254.395,0
1712565401.781,-1000,-1000,-704.102,-845.215,0
1712565401.785,-238.281,-726.562,-604.492,506.836,0
1712565401.789,982.422,610.352,-573.242,-883.301,0
1712565401.793,-951.66,-914.062,-605.957,-1000,0
1712565401.797,-75.684,-142.09,-665.527,-228.516,0
1712565401.801,-1000,-1000,-687.988,-893.066,0
1712565401.805,-436.035,-918.457,-625,705.078,0
1712565401.809,886.719,316.406,-564.941,-670.898,0
1712565401.813,-891.602,-828.125,-579.102,-1000,0
1712565401.816,61.035,-24.902,-623.047,-262.695,0
1712565401.82,-1000,-1000,-652.832,-970.215,0
1712565401.824,-657.227,-1000,-641.602,903.809,0
1712565401.828,707.52,35.645,-571.289,-390.625,0
1712565401.832,-832.52,-793.945,-565.43,-1000,0
1712565401.836,174.316,91.797,-671.387,-459.961,0
1712565401.84,-1000,-1000,-727.539,880.859,0
1712565401.844,-905.273,-1000,-625,-917.969,0
1712565401.848,416.504,-122.07,-545.898,-124.512,0
1712565401.852,-785.645,-801.27,-572.266,-1000,0
1712565401.856,144.531,216.797,-630.371,-668.457,0
1712565401.859,-1000,-1000,-660.156,678.711,0
1712565401.863,-1000,-1000,-607.422,-833.984,0
1712565401.867,95.215,-211.426,-597.168,33.203,0
1712565401.871,-764.648,-825.684,-592.285,-1000,0
1712565401.875,164.062,329.102,-634.766,-950.195,0
1712565401.879,-1000,-952.148,-695.312,298.828,0
1712565401.883,-1000,-1000,-666.016,-771.484,0
1712565401.887,-122.07,-283.691,-583.984,142.578,0
1712565401.891,-795.898,-875,-546.875,-1000,0
1712565401.895,356.934,484.863,-632.812,-1000,0
1712565401.899,-944.336,-833.496,-712.891,42.969,0
1712565401.903,-1000,-1000,-669.922,-770.02,0
1712565401.907,-247.07,-353.516,-517.09,145.02,0
1712565401.91,-864.746,-955.078,-498.047,-1000,0
1712565401.914,602.051,694.336,-615.723,-1000,0
1712565401.918,-797.852,-624.512,-676.758,-101.562,0
1712565401.922,-1000,-1000,-672.852,-788.574,0
1712565401.926,-212.891,-476.074,-605.469,192.383,0
1712565401.93,-924.805,914.551,-577.637,-1000,0
1712565401.934,819.824,884.766,-600.098,-1000,0
1712565401.938,-527.832,-415.527,-669.922,-262.207,0
1712565401.942,-1000,-1000,-697.266,-831.543,0
1712565401.946,-186.035,-665.527,-616.211,392.578,0
1712565401.95,-977.539,696.777,-540.527,-946.777,0
1712565401.954,987.793,-974.609,-558.105,-1000,0
1712565401.957,-226.562,-242.188,-684.082,-247.07,0
1712565401.961,-1000,-1000,-712.402,-858.887,0
1712565401.965,-352.051,-838.379,-611.328,572.754,0
1712565401.969,927.734,446.777,-534.18,-821.289,0
1712565401.973,-916.992,-862.793,-578.613,-1000,0
1712565401.977,-5.371,-75.195,-708.496,-267.578,0
1712565401.981,-1000,-1000,-666.992,-934.082,0
1712565401.985,-519.043,-980.469,-573.73,794.434,0
1712565401.989,832.031,189.941,-584.473,-556.152,0
1712565401.993,-862.793,-800.781,-598.633,-1000,0
1712565401.997,159.668,41.016,-661.133,-398.438,0
1712565402,-1000,-1000,-683.594,937.012,0
1712565402.004,-798.34,-1000,-618.652,-982.422,0
1712565402.008,562.012,-56.152,-563.965,-249.023,0
1712565402.012,-805.664,-795.41,-564.453,-1000,0
1712565402.016,153.809,145.508,-667.969,-634.766,0
1712565402.02,-1000,-1000,-735.84,728.027,0
1712565402.024,-1000,-1000,-626.465,-862.305,0
1712565402.028,202.637,-183.594,-543.457,-84.473,0
1712565402.032,-765.625,-813.477,-593.75,-1000,0
1712565402.036,139.648,263.184,-679.688,-885.742,0
1712565402.04,-1000,-987.793,-711.426,388.184,0
1712565402.043,-1000,-1000,-626.465,-784.18,0
1712565402.047,-16.113,-247.07,-555.664,84.961,0
1712565402.051,-774.414,-844.727,-574.707,-1000,0
1712565402.055,248.047,393.555,-614.746,-1000,0
1712565402.059,-983.887,-907.227,-676.27,145.508,0
1712565402.063,-1000,-1000,-682.129,-762.695,0
1712565402.067,-218.262,-325.195,-596.191,136.719,0
1712565402.071,-825.684,-906.25,-577.148,-1000,0
1712565402.075,421.875,549.316,-636.23,-1000,0
1712565402.079,-925.781,-776.855,-714.844,-110.84,0
1712565402.083,-1000,-1000,-674.316,-791.504,0
1712565402.086,-233.398,-431.152,-578.125,152.832,0
1712565402.09,-895.996,960.938,-565.918,-1000,0
1712565402.094,594.238,718.75,-599.609,-1000,0
