timestamps,TP9,AF7,AF8,TP10,Right AUX
1712217076.480,0.000,0.000,0.000,0.000,0.000
1712217076.484,-0.488,0.000,-0.488,0.000,0.000
1712217076.487,-2.441,-0.977,0.000,-3.906,0.000
1712217076.491,3.418,0.977,-1.953,6.348,0.000
1712217076.495,-25.879,-3.906,-3.418,-37.598,0.000
1712217076.499,-97.168,-11.230,-29.785,-131.348,0.000
1712217076.503,-101.562,-9.766,-55.664,-120.605,0.000
1712217076.507,-66.895,-9.277,-55.664,-108.398,0.000
1712217076.511,-76.660,-0.488,-67.871,-137.695,0.000
1712217076.515,-103.516,-8.789,-62.500,-129.883,0.000
1712217076.518,-103.516,-14.648,-51.758,-127.930,0.000
1712217076.522,-96.680,-15.137,-52.246,-137.207,0.000
1712217076.525,-87.402,-24.902,-58.594,-135.254,0.000
1712217076.529,-74.219,-30.762,-56.641,-109.863,0.000
1712217076.532,-69.824,-19.043,-57.617,-107.422,0.000
1712217076.536,-64.453,-12.695,-49.316,-104.492,0.000
1712217076.540,-62.988,-2.441,-39.551,-86.914,0.000
1712217076.544,-73.242,-12.207,-42.480,-80.566,0.000
1712217076.548,-69.336,-23.926,-44.922,-88.379,0.000
1712217076.551,-65.430,-27.832,-40.039,-75.195,0.000
1712217076.555,-62.988,-37.109,-30.762,-58.594,0.000
1712217076.559,-51.758,-37.598,-36.133,-74.707,0.000
1712217076.563,-55.176,-35.645,-42.969,-71.777,0.000
1712217076.566,-43.945,-27.344,-42.969,-66.895,0.000
1712217076.567,-40.039,-36.133,-35.645,-58.594,0.000
1712217076.571,-40.039,-41.992,-37.598,-60.547,0.000
1712217076.575,-38.086,-38.086,-43.457,-58.105,0.000
1712217076.578,-41.992,-31.738,-45.410,-63.965,0.000
1712217076.582,-32.227,-28.320,-46.875,-66.895,0.000
1712217076.585,-39.062,-36.621,-43.945,-56.152,0.000
1712217076.589,-49.805,-31.250,-49.316,-70.801,0.000
1712217076.593,-60.059,-38.086,-41.992,-53.223,0.000
1712217076.596,-60.059,-39.551,-41.504,-46.875,0.000
1712217076.600,-47.852,-34.668,-46.875,-58.594,0.000
1712217076.604,-29.785,-42.480,-46.875,-61.035,0.000
1712217076.607,-40.527,-42.480,-41.992,-59.570,0.000
1712217076.607,-65.918,-38.086,-41.504,-47.852,0.000
1712217076.611,-61.035,-41.992,-37.109,-36.133,0.000
1712217076.614,-49.805,-20.508,-39.062,-44.434,0.000
1712217076.618,-27.344,-23.438,-40.527,-63.965,0.000
1712217076.621,-15.137,-46.387,-22.949,-43.457,0.000
1712217076.625,-42.480,-36.133,-24.414,-41.016,0.000
1712217076.628,-47.363,-41.016,-28.809,-50.293,0.000
1712217076.632,-30.273,-37.598,-30.762,-37.598,0.000
1712217076.635,-39.551,-30.762,-29.297,-49.805,0.000
1712217076.639,-62.012,-45.410,-22.461,-59.570,0.000
1712217076.642,-43.457,-51.758,-31.250,-54.688,0.000
1712217076.646,-15.625,-42.969,-29.297,-41.016,0.000
1712217076.646,-65.430,-23.438,-29.297,-59.082,0.000
1712217076.649,-53.223,-25.391,-26.367,-50.293,0.000
1712217076.653,-12.695,-33.691,-24.414,-31.738,0.000
1712217076.656,-41.016,-33.203,-27.344,-38.086,0.000
1712217076.660,-47.852,-29.785,-27.832,-56.152,0.000
1712217076.663,-27.832,-28.320,-38.574,-53.223,0.000
1712217076.667,-21.484,-53.223,-32.715,-17.578,0.000
1712217076.670,-30.762,-42.969,-33.203,-59.570,0.000
1712217076.673,-34.668,-51.270,-32.227,-61.523,0.000
1712217076.677,-21.484,-59.082,-28.809,-33.691,0.000
1712217076.680,-25.391,-43.457,-33.691,-45.410,0.000
1712217076.684,-62.012,-46.875,-34.180,-49.805,0.000
1712217076.684,-64.941,-34.668,-37.109,-62.988,0.000
1712217076.688,-27.832,-48.828,-30.273,-32.715,0.000
1712217076.691,-41.992,-72.266,-32.227,-50.781,0.000
1712217076.695,-55.664,-59.570,-39.062,-60.059,0.000
1712217076.698,-38.574,-50.293,-36.133,-45.898,0.000
1712217076.702,-19.043,-52.246,-29.297,-47.852,0.000
1712217076.705,-31.738,-56.152,-24.902,-42.969,0.000
1712217076.708,-30.762,-43.945,-20.020,-52.734,0.000
1712217076.712,-24.414,-38.574,-19.043,-47.852,0.000
1712217076.715,-26.855,-52.246,-23.438,-32.715,0.000
1712217076.719,-17.090,-48.828,-28.809,-23.926,0.000
1712217076.722,-37.598,-46.875,-29.297,-36.133,0.000
1712217076.726,-54.199,-49.316,-34.180,-46.387,0.000
1712217076.729,-45.410,-46.875,-39.062,-52.246,0.000
1712217076.732,-23.926,-36.133,-41.016,-46.387,0.000
1712217076.736,-6.836,-43.945,-42.969,-39.062,0.000
1712217076.739,-25.391,-55.664,-40.527,-53.223,0.000
1712217076.743,-45.410,-59.570,-40.527,-64.453,0.000
1712217076.746,-48.828,-54.199,-36.133,-55.176,0.000
1712217076.750,-25.879,-41.016,-32.715,-38.086,0.000
1712217076.753,-14.160,-16.113,-42.480,-42.480,0.000
1712217076.756,-35.645,-17.578,-40.039,-54.688,0.000
1712217076.760,-22.949,-37.598,-33.203,-38.574,0.000
1712217076.763,-27.832,-39.062,-33.691,-31.738,0.000
1712217076.767,-40.527,-47.852,-27.344,-27.832,0.000
1712217076.771,-8.301,-40.039,-25.879,-35.645,0.000
1712217076.774,-12.695,-41.016,-31.250,-54.199,0.000
1712217076.778,-60.547,-37.598,-28.320,-44.922,0.000
1712217076.781,-47.363,-31.250,-23.926,-17.090,0.000
1712217076.784,-19.043,-39.551,-30.273,-24.414,0.000
1712217076.788,-39.062,-41.992,-41.992,-53.711,0.000
1712217076.791,-45.410,-40.527,-45.410,-48.340,0.000
1712217076.795,-26.367,-41.992,-41.992,-35.645,0.000
1712217076.798,-46.387,-31.738,-40.527,-51.270,0.000
1712217076.802,-47.363,-19.043,-35.645,-39.062,0.000
1712217076.805,-41.504,-21.484,-40.527,-59.082,0.000
1712217076.810,-46.387,-39.551,-36.621,-69.336,0.000
1712217076.813,-42.480,-22.461,-40.039,-41.504,0.000
1712217076.816,-49.805,-21.973,-48.340,-56.641,0.000
1712217076.820,-41.992,-30.762,-50.781,-72.266,0.000
1712217076.823,-13.184,-26.367,-47.852,-45.410,0.000
1712217076.827,-23.438,-36.621,-45.410,-39.551,0.000
1712217076.830,-45.410,-25.391,-50.293,-51.758,0.000
1712217076.834,-53.223,-29.297,-49.316,-49.805,0.000
1712217076.837,-60.547,-30.762,-42.480,-41.992,0.000
1712217076.840,-48.340,-21.484,-40.039,-52.246,0.000
1712217076.844,-51.758,-21.973,-36.621,-42.969,0.000
1712217076.847,-51.270,-25.879,-33.203,-30.762,0.000
1712217076.852,-24.414,-32.227,-36.133,-41.016,0.000
1712217076.856,-25.391,-36.133,-38.086,-48.828,0.000
1712217076.859,-45.410,-42.480,-34.180,-52.734,0.000
1712217076.863,-53.223,-43.457,-32.227,-45.410,0.000
1712217076.866,-49.805,-27.344,-43.945,-56.152,0.000
1712217076.869,-56.152,-29.785,-46.875,-62.500,0.000
1712217076.873,-73.730,-33.691,-39.551,-71.289,0.000
1712217076.876,-76.660,-27.832,-41.504,-62.500,0.000
1712217076.880,-39.551,-43.945,-40.039,-51.758,0.000
1712217076.883,-41.016,-41.992,-38.574,-75.684,0.000
1712217076.887,-54.688,-37.598,-33.691,-48.828,0.000
1712217076.890,-53.711,-46.875,-27.832,-28.809,0.000
1712217076.895,-36.621,-44.922,-28.809,-31.738,0.000
1712217076.899,-31.250,-23.438,-40.039,-51.758,0.000
1712217076.902,-42.480,-22.949,-42.969,-65.918,0.000
1712217076.906,-47.852,-46.387,-33.691,-30.762,0.000
1712217076.909,-39.551,-44.922,-30.762,-28.809,0.000
1712217076.913,-33.691,-34.180,-33.203,-34.180,0.000
1712217076.916,-33.203,-26.855,-41.992,-29.297,0.000
1712217076.919,-37.598,-39.551,-45.410,-48.340,0.000
1712217076.923,-51.270,-50.293,-43.457,-49.316,0.000
1712217076.926,-34.180,-55.664,-42.969,-48.828,0.000
1712217076.930,-39.062,-53.223,-43.945,-53.711,0.000
1712217076.933,-40.039,-40.039,-51.758,-58.594,0.000
1712217076.939,-37.109,-36.133,-46.875,-37.598,0.000
1712217076.942,-46.387,-58.105,-34.668,-37.109,0.000
1712217076.945,-34.668,-48.828,-33.691,-39.551,0.000
1712217076.949,-41.016,-25.879,-30.273,-21.973,0.000
1712217076.952,-37.598,-36.133,-29.785,-28.320,0.000
1712217076.956,-36.133,-37.109,-33.203,-42.969,0.000
1712217076.959,-52.246,-34.668,-29.785,-43.945,0.000
1712217076.963,-38.574,-33.691,-31.738,-40.527,0.000
1712217076.966,-12.207,-33.691,-33.691,-55.664,0.000
1712217076.970,-23.438,-38.574,-30.273,-56.641,0.000
1712217076.973,-47.363,-46.875,-33.203,-61.035,0.000
1712217076.977,-45.410,-40.039,-33.203,-62.012,0.000
1712217076.982,-44.434,-34.668,-33.203,-43.945,0.000
1712217076.986,-30.273,-54.199,-34.668,-34.668,0.000
1712217076.989,-41.992,-36.621,-37.598,-44.922,0.000
1712217076.993,-66.406,-34.668,-36.621,-60.547,0.000
1712217076.996,-53.223,-36.133,-33.691,-51.758,0.000
1712217077.000,-50.293,-27.344,-37.109,-46.875,0.000
1712217077.003,-40.039,-45.410,-29.785,-40.527,0.000
1712217077.007,-40.527,-32.715,-32.227,-47.363,0.000
1712217077.010,-46.387,-33.691,-27.344,-57.617,0.000
1712217077.014,-28.809,-47.363,-13.672,-38.574,0.000
1712217077.017,-34.668,-39.551,-20.020,-47.363,0.000
1712217077.021,-51.270,-39.062,-25.391,-50.293,0.000
1712217077.026,-49.805,-27.832,-32.715,-46.387,0.000
1712217077.029,-40.039,-27.344,-39.062,-59.570,0.000
1712217077.033,-41.992,-53.223,-30.762,-53.223,0.000
1712217077.036,-52.246,-55.664,-25.391,-48.340,0.000
1712217077.040,-43.945,-38.574,-35.645,-58.105,0.000
1712217077.043,-29.785,-44.922,-39.551,-47.852,0.000
1712217077.047,-27.832,-40.527,-38.086,-41.016,0.000
1712217077.050,-27.832,-35.156,-30.762,-44.922,0.000
1712217077.054,-28.809,-28.809,-36.621,-57.617,0.000
1712217077.058,-16.602,-32.715,-38.574,-43.457,0.000
1712217077.061,-16.113,-38.574,-37.109,-40.039,0.000
1712217077.065,-28.320,-26.855,-41.992,-54.199,0.000
1712217077.072,-24.414,-38.574,-43.945,-50.293,0.000
1712217077.075,-24.902,-42.969,-43.945,-51.758,0.000
1712217077.079,-35.156,-36.621,-44.922,-49.805,0.000
1712217077.082,-29.785,-45.410,-40.039,-42.480,0.000
1712217077.086,-20.508,-40.527,-39.062,-48.828,0.000
1712217077.089,-26.367,-43.945,-41.992,-41.992,0.000
1712217077.093,-39.062,-36.133,-42.480,-47.363,0.000
1712217077.096,-23.438,-28.809,-37.598,-54.688,0.000
1712217077.100,-25.879,-29.785,-43.945,-50.293,0.000
1712217077.103,-24.902,-30.762,-52.246,-46.875,0.000
1712217077.107,-12.207,-42.480,-39.062,-36.621,0.000
1712217077.110,-26.855,-30.273,-32.715,-39.551,0.000
1712217077.117,-27.344,-23.438,-34.668,-45.410,0.000
1712217077.121,-33.203,-18.555,-38.086,-55.664,0.000
1712217077.124,-28.809,-34.180,-32.715,-51.270,0.000
1712217077.128,-9.766,-39.062,-27.344,-39.062,0.000
1712217077.131,-8.301,-41.504,-22.949,-28.809,0.000
1712217077.135,-39.551,-34.668,-31.250,-41.504,0.000
1712217077.139,-51.270,-39.062,-25.391,-28.320,0.000
1712217077.142,-37.109,-40.039,-28.320,-35.645,0.000
1712217077.146,-25.879,-34.668,-30.762,-37.109,0.000
1712217077.149,-18.555,-43.457,-23.926,-20.508,0.000
1712217077.153,-25.391,-35.156,-28.320,-35.156,0.000
1712217077.156,-24.414,-32.227,-26.855,-24.902,0.000
1712217077.163,-22.949,-37.598,-24.902,-22.949,0.000
1712217077.167,-36.133,-30.762,-29.785,-30.273,0.000
1712217077.170,-25.391,-26.855,-32.227,-35.645,0.000
1712217077.174,-23.926,-29.785,-34.180,-28.320,0.000
1712217077.177,-25.879,-31.250,-33.691,-19.043,0.000
1712217077.181,-4.395,-32.227,-27.832,-6.348,0.000
1712217077.184,-16.602,-20.020,-33.691,-16.602,0.000
1712217077.188,-30.273,-34.180,-32.715,-22.461,0.000
1712217077.191,-41.992,-46.387,-34.180,-24.414,0.000
1712217077.195,-46.875,-33.691,-39.551,-33.691,0.000
1712217077.199,-42.480,-42.480,-34.180,-24.902,0.000
1712217077.202,-21.484,-31.250,-36.133,-28.320,0.000
1712217077.209,-30.273,-25.879,-36.621,-49.316,0.000
1712217077.212,-47.363,-44.434,-28.809,-39.062,0.000
1712217077.216,-29.785,-37.109,-28.320,-37.598,0.000
1712217077.219,-25.879,-34.668,-29.297,-43.945,0.000
1712217077.223,-28.320,-45.410,-24.414,-21.484,0.000
1712217077.227,-19.531,-27.344,-35.156,-28.809,0.000
1712217077.230,-22.949,-30.273,-45.410,-35.645,0.000
1712217077.234,-40.039,-52.734,-39.062,-33.691,0.000
1712217077.237,-44.434,-30.762,-50.293,-42.969,0.000
1712217077.241,-14.160,-16.602,-49.805,-33.691,0.000
1712217077.244,-7.812,-34.180,-34.180,-41.504,0.000
1712217077.248,-25.879,-26.855,-33.691,-48.828,0.000
1712217077.254,-37.598,-34.180,-25.879,-49.805,0.000
1712217077.258,-47.363,-48.340,-26.855,-56.641,0.000
1712217077.262,-33.691,-41.504,-31.738,-50.293,0.000
1712217077.265,-32.715,-30.273,-37.109,-47.363,0.000
1712217077.269,-44.434,-28.809,-40.527,-54.688,0.000
1712217077.272,-45.898,-27.344,-44.922,-61.035,0.000
1712217077.276,-73.242,-31.738,-50.293,-57.129,0.000
1712217077.279,-59.570,-51.270,-45.410,-41.504,0.000
1712217077.283,-30.762,-41.016,-42.480,-47.363,0.000
1712217077.287,-43.457,-29.785,-40.527,-58.594,0.000
1712217077.290,-65.918,-43.457,-43.945,-62.988,0.000
1712217077.294,-51.270,-42.969,-41.016,-55.664,0.000
1712217077.300,-27.832,-34.668,-42.480,-49.805,0.000
1712217077.304,-22.461,-34.668,-51.758,-53.711,0.000
1712217077.307,-37.598,-39.062,-45.410,-49.316,0.000
1712217077.311,-41.016,-43.945,-43.945,-45.898,0.000
1712217077.314,-41.992,-36.133,-41.504,-55.176,0.000
1712217077.318,-33.203,-32.227,-44.434,-52.246,0.000
1712217077.322,-31.738,-39.062,-49.316,-40.527,0.000
1712217077.325,-39.551,-42.969,-46.387,-49.316,0.000
1712217077.329,-54.688,-26.855,-56.641,-60.059,0.000
1712217077.332,-50.781,-30.762,-56.641,-58.105,0.000
1712217077.336,-37.109,-39.551,-48.828,-59.570,0.000
1712217077.340,-32.227,-30.273,-49.805,-49.316,0.000
1712217077.346,-32.227,-40.039,-42.969,-34.180,0.000
1712217077.349,-39.551,-36.133,-40.527,-45.410,0.000
1712217077.353,-39.062,-28.320,-46.875,-55.176,0.000
1712217077.356,-36.133,-35.645,-46.875,-50.293,0.000
1712217077.360,-48.340,-42.969,-42.480,-43.457,0.000
1712217077.364,-53.711,-50.781,-43.457,-40.527,0.000
1712217077.367,-60.547,-35.645,-47.852,-46.875,0.000
1712217077.371,-75.195,-43.945,-43.945,-45.898,0.000
1712217077.374,-55.176,-32.227,-43.945,-44.922,0.000
1712217077.378,-47.852,-18.066,-45.898,-46.875,0.000
1712217077.382,-28.809,-39.062,-39.551,-25.391,0.000
1712217077.385,-30.762,-31.738,-41.504,-30.273,0.000
1712217077.393,-39.062,-36.621,-35.156,-27.832,0.000
1712217077.396,-23.438,-43.457,-33.691,-21.973,0.000
1712217077.400,-19.531,-28.809,-44.434,-40.039,0.000
1712217077.403,-21.484,-33.203,-41.504,-40.527,0.000
1712217077.407,-25.391,-37.598,-34.668,-37.598,0.000
1712217077.411,-40.527,-26.367,-39.062,-45.410,0.000
1712217077.414,-45.410,-25.391,-37.109,-40.527,0.000
1712217077.418,-24.902,-34.180,-27.344,-26.367,0.000
1712217077.422,-16.113,-41.504,-28.809,-25.391,0.000
1712217077.425,-42.480,-39.551,-31.250,-26.367,0.000
1712217077.429,-51.270,-19.043,-32.227,-37.598,0.000
1712217077.432,-45.410,-22.461,-30.273,-43.457,0.000
1712217077.441,-36.621,-40.039,-31.250,-36.621,0.000
1712217077.444,-34.668,-27.344,-36.621,-46.875,0.000
1712217077.448,-56.152,-38.574,-30.762,-39.062,0.000
1712217077.452,-55.176,-39.551,-29.785,-40.039,0.000
1712217077.455,-55.176,-25.391,-31.738,-46.875,0.000
1712217077.459,-58.105,-34.180,-29.297,-48.828,0.000
1712217077.462,-59.082,-35.156,-32.715,-53.711,0.000
1712217077.466,-55.664,-37.109,-40.039,-50.781,0.000
1712217077.470,-53.711,-40.039,-38.086,-48.828,0.000
1712217077.473,-60.547,-34.668,-34.668,-39.062,0.000
1712217077.477,-52.246,-27.344,-29.785,-42.480,0.000
1712217077.481,-48.340,-33.203,-29.297,-43.457,0.000
1712217077.487,-61.035,-34.180,-34.180,-42.969,0.000
1712217077.491,-58.594,-31.250,-31.250,-41.016,0.000
1712217077.495,-45.898,-37.598,-30.273,-30.762,0.000
1712217077.498,-55.664,-34.180,-37.109,-39.062,0.000
1712217077.502,-44.434,-24.414,-29.785,-38.086,0.000
1712217077.506,-59.082,-26.855,-25.879,-34.668,0.000
1712217077.509,-72.266,-38.574,-32.227,-40.039,0.000
1712217077.513,-44.922,-31.250,-38.574,-47.852,0.000
1712217077.517,-35.156,-28.809,-42.480,-44.922,0.000
1712217077.520,-46.387,-39.551,-34.180,-24.414,0.000
1712217077.524,-49.805,-33.691,-37.109,-35.645,0.000
1712217077.527,-41.992,-27.832,-37.598,-46.875,0.000
1712217077.534,-26.855,-32.227,-30.273,-25.879,0.000
1712217077.538,-27.344,-33.203,-38.086,-30.273,0.000
1712217077.541,-21.484,-33.691,-39.551,-34.180,0.000
1712217077.545,-22.949,-38.574,-40.527,-31.738,0.000
1712217077.548,-41.504,-44.922,-42.480,-38.086,0.000
1712217077.552,-36.621,-38.574,-49.316,-31.250,0.000
1712217077.556,-46.875,-35.156,-55.664,-33.691,0.000
1712217077.559,-32.227,-40.039,-40.527,-35.156,0.000
1712217077.563,-29.785,-50.293,-30.273,-25.879,0.000
1712217077.567,-48.340,-38.086,-39.551,-33.203,0.000
1712217077.570,-35.645,-37.598,-34.668,-32.715,0.000
1712217077.574,-9.277,-24.414,-30.273,-27.832,0.000
1712217077.580,-19.043,-27.832,-33.691,-21.484,0.000
1712217077.584,-34.668,-49.316,-35.156,-14.648,0.000
1712217077.588,-23.438,-32.227,-36.621,-24.414,0.000
1712217077.591,-28.809,-41.016,-36.621,-23.438,0.000
1712217077.595,-33.691,-40.527,-40.039,-33.691,0.000
1712217077.599,-10.254,-27.832,-40.527,-37.598,0.000
1712217077.602,-24.414,-25.879,-36.621,-33.691,0.000
1712217077.606,-31.738,-27.832,-40.527,-24.414,0.000
1712217077.610,-23.926,-35.156,-41.504,-24.414,0.000
1712217077.613,-30.273,-33.203,-40.039,-32.227,0.000
1712217077.617,-39.551,-28.320,-45.898,-45.898,0.000
1712217077.621,-51.758,-34.668,-42.480,-45.898,0.000
1712217077.627,-44.922,-37.109,-36.621,-35.156,0.000
1712217077.630,-30.273,-31.738,-38.086,-36.621,0.000
1712217077.634,-36.621,-31.250,-41.992,-36.621,0.000
1712217077.638,-4.883,-39.551,-49.316,-14.160,0.000
1712217077.641,12.207,-37.109,-49.316,5.371,0.000
1712217077.645,-29.297,-35.645,-43.457,-26.367,0.000
1712217077.649,-44.922,-46.387,-40.527,-41.992,0.000
1712217077.652,-37.109,-41.016,-52.246,-29.297,0.000
1712217077.656,-16.602,-38.086,-52.246,-14.648,0.000
1712217077.660,6.348,-37.109,-44.922,-6.836,0.000
1712217077.663,0.000,-41.016,-40.527,2.441,0.000
1712217077.667,-3.418,-52.246,-34.180,12.207,0.000
1712217077.673,18.555,-41.504,-39.062,12.695,0.000
1712217077.677,33.691,-33.691,-40.039,20.020,0.000
1712217077.680,13.184,-39.062,-40.039,14.648,0.000
1712217077.684,10.742,-44.434,-36.133,18.555,0.000
1712217077.688,20.020,-44.922,-31.250,31.250,0.000
1712217077.691,19.043,-40.527,-31.250,25.879,0.000
1712217077.695,32.227,-36.621,-35.645,28.809,0.000
1712217077.699,36.133,-27.344,-41.992,20.996,0.000
1712217077.702,16.602,-35.645,-40.527,5.859,0.000
1712217077.706,30.273,-44.434,-36.133,17.090,0.000
1712217077.710,28.809,-47.363,-35.645,12.695,0.000
1712217077.713,30.273,-43.945,-43.945,0.977,0.000
1712217077.719,22.949,-38.086,-42.480,5.859,0.000
1712217077.723,13.184,-42.480,-35.645,4.395,0.000
1712217077.726,16.113,-47.363,-35.645,5.859,0.000
1712217077.730,7.324,-36.133,-43.945,-2.441,0.000
1712217077.734,10.742,-32.227,-44.922,0.488,0.000
1712217077.738,21.973,-38.086,-45.410,5.371,0.000
1712217077.741,1.953,-39.062,-48.828,-4.883,0.000
1712217077.745,-4.395,-39.062,-40.527,-1.465,0.000
1712217077.749,1.953,-30.273,-40.039,-15.625,0.000
1712217077.752,2.930,-38.086,-42.969,-22.949,0.000
1712217077.756,2.930,-51.758,-37.598,-18.066,0.000
1712217077.760,1.465,-49.316,-31.250,-16.113,0.000
1712217077.765,8.301,-52.734,-38.086,-8.301,0.000
1712217077.769,14.648,-52.246,-52.246,-6.348,0.000
1712217077.773,-0.977,-41.016,-53.223,-17.578,0.000
1712217077.776,-5.371,-33.203,-42.480,-21.484,0.000
1712217077.780,-5.371,-34.180,-37.598,-15.137,0.000
1712217077.784,-9.766,-32.227,-38.086,-8.301,0.000
1712217077.787,-5.371,-20.996,-34.180,-4.883,0.000
1712217077.791,-16.602,-28.809,-33.691,-14.648,0.000
1712217077.795,-7.324,-38.574,-35.156,-19.043,0.000
1712217077.798,-13.672,-35.645,-37.109,-21.973,0.000
1712217077.802,-21.484,-28.320,-42.480,-26.855,0.000
1712217077.806,-15.625,-22.949,-37.109,-27.832,0.000
1712217077.812,-25.879,-37.598,-32.715,-23.438,0.000
1712217077.816,-13.672,-37.109,-31.250,-18.066,0.000
1712217077.820,-12.695,-25.879,-31.250,-22.461,0.000
1712217077.823,-20.020,-33.203,-31.250,-26.367,0.000
1712217077.827,-19.043,-37.109,-22.949,-24.902,0.000
1712217077.831,-13.672,-34.668,-22.949,-24.902,0.000
1712217077.835,4.395,-42.480,-29.297,-22.949,0.000
1712217077.838,-12.207,-46.875,-34.668,-23.438,0.000
1712217077.842,-20.020,-41.992,-36.133,-18.555,0.000
1712217077.846,-4.395,-42.480,-34.180,-16.602,0.000
1712217077.849,-13.672,-44.922,-36.133,-31.250,0.000
1712217077.853,-23.438,-45.898,-43.457,-36.621,0.000
1712217077.859,-23.438,-41.992,-49.316,-29.297,0.000
1712217077.863,-25.879,-34.668,-44.922,-29.297,0.000
1712217077.867,-13.672,-33.203,-32.227,-30.273,0.000
1712217077.870,-21.973,-41.016,-32.715,-20.508,0.000
1712217077.874,-25.391,-37.598,-36.621,-18.555,0.000
1712217077.878,-25.391,-27.344,-33.203,-26.367,0.000
1712217077.882,-38.574,-33.691,-30.762,-28.320,0.000
1712217077.885,-36.621,-35.645,-30.762,-24.902,0.000
1712217077.889,-30.273,-39.551,-37.598,-17.578,0.000
1712217077.893,-29.297,-41.504,-39.062,-13.184,0.000
1712217077.896,-26.855,-44.922,-35.645,-13.672,0.000
1712217077.900,-36.133,-44.922,-36.621,-25.391,0.000
1712217077.906,-35.156,-38.574,-30.762,-20.020,0.000
1712217077.910,-27.832,-35.645,-25.391,0.000,0.000
1712217077.914,-22.949,-32.227,-29.297,-12.207,0.000
1712217077.917,-18.066,-26.367,-36.621,-27.832,0.000
1712217077.921,-13.672,-26.855,-33.203,-17.090,0.000
1712217077.925,-11.719,-33.203,-26.367,-9.766,0.000
1712217077.928,-14.160,-33.691,-33.203,-18.066,0.000
1712217077.932,-29.297,-41.016,-37.598,-24.414,0.000
1712217077.936,-40.039,-36.133,-34.668,-13.184,0.000
1712217077.940,-28.320,-20.996,-30.762,-14.648,0.000
1712217077.943,-29.297,-15.137,-33.691,-37.109,0.000
1712217077.947,-29.297,-34.180,-33.691,-36.133,0.000
1712217077.953,-25.391,-37.109,-30.273,-34.668,0.000
1712217077.957,-33.691,-37.109,-30.762,-28.809,0.000
1712217077.960,-36.133,-40.527,-35.156,-21.484,0.000
1712217077.964,-31.250,-42.969,-37.109,-30.273,0.000
1712217077.968,-34.180,-43.945,-31.250,-28.809,0.000
1712217077.972,-30.273,-28.320,-29.785,-23.926,0.000
1712217077.975,-32.715,-40.527,-30.762,-26.367,0.000
1712217077.979,-31.250,-38.574,-34.180,-33.203,0.000
1712217077.983,-37.109,-41.992,-42.480,-36.621,0.000
1712217077.986,-41.016,-59.082,-47.363,-29.297,0.000
1712217077.990,-43.457,-49.805,-41.504,-37.598,0.000
1712217077.994,-36.621,-48.828,-39.062,-33.691,0.000
1712217078.000,-31.738,-48.340,-38.086,-28.320,0.000
1712217078.003,-31.250,-44.434,-37.598,-40.527,0.000
1712217078.007,-39.551,-41.504,-49.316,-41.992,0.000
1712217078.011,-56.641,-45.410,-50.293,-39.062,0.000
1712217078.014,-46.875,-40.039,-41.016,-46.387,0.000
1712217078.018,-38.574,-41.992,-39.551,-52.246,0.000
1712217078.022,-42.480,-45.898,-38.574,-43.945,0.000
1712217078.026,-48.828,-37.109,-42.969,-41.016,0.000
1712217078.029,-49.316,-50.293,-43.457,-43.457,0.000
1712217078.033,-33.203,-59.082,-39.062,-43.457,0.000
1712217078.037,-33.691,-47.363,-42.969,-35.645,0.000
1712217078.041,-35.645,-45.898,-51.758,-35.156,0.000
1712217078.046,-29.785,-38.086,-52.734,-46.387,0.000
1712217078.050,-40.039,-36.133,-47.852,-41.016,0.000
1712217078.054,-22.461,-39.062,-44.922,-27.344,0.000
1712217078.057,-21.973,-39.062,-39.551,-32.227,0.000
1712217078.061,-50.781,-32.227,-40.527,-47.852,0.000
1712217078.065,-44.434,-36.621,-31.250,-31.250,0.000
1712217078.069,-39.551,-42.480,-30.273,-19.043,0.000
1712217078.072,-36.133,-34.668,-39.062,-25.879,0.000
1712217078.076,-31.250,-35.156,-41.016,-37.598,0.000
1712217078.080,-34.668,-42.969,-38.574,-49.805,0.000
1712217078.083,-40.039,-42.480,-36.621,-39.062,0.000
1712217078.087,-32.227,-37.598,-36.133,-32.715,0.000
1712217078.093,-17.090,-34.180,-40.527,-32.227,0.000
1712217078.096,-20.020,-35.156,-48.340,-31.250,0.000
1712217078.100,-41.992,-39.062,-49.316,-41.016,0.000
1712217078.104,-36.621,-49.316,-47.852,-41.016,0.000
1712217078.108,-32.227,-41.504,-47.363,-34.668,0.000
1712217078.111,-48.340,-38.574,-49.805,-38.086,0.000
1712217078.115,-49.805,-44.922,-50.781,-35.645,0.000
1712217078.119,-28.320,-40.527,-47.363,-24.902,0.000
1712217078.122,-0.488,-36.133,-35.645,1.465,0.000
1712217078.126,-16.602,-35.645,-33.203,-12.695,0.000
1712217078.130,-48.340,-36.621,-35.645,-55.176,0.000
1712217078.134,-49.805,-27.344,-22.949,-61.035,0.000
1712217078.139,-71.289,-20.996,-26.855,-78.613,0.000
1712217078.143,-89.844,-26.367,-39.062,-90.820,0.000
1712217078.146,-83.984,-28.809,-39.062,-93.262,0.000
1712217078.150,-102.051,-24.902,-32.227,-107.910,0.000
1712217078.154,-106.934,-25.879,-25.879,-109.375,0.000
1712217078.158,-107.910,-21.484,-32.715,-109.375,0.000
1712217078.161,-108.398,-24.414,-33.691,-116.211,0.000
1712217078.165,-126.953,-26.855,-33.203,-128.418,0.000
1712217078.169,-150.879,-27.832,-36.621,-138.672,0.000
1712217078.173,-140.625,-27.344,-33.691,-130.859,0.000
1712217078.176,-128.906,-23.926,-30.762,-125.000,0.000
1712217078.180,-128.906,-29.297,-32.715,-121.582,0.000
1712217078.186,-116.211,-33.203,-38.086,-113.770,0.000
1712217078.190,-109.863,-36.133,-32.227,-111.328,0.000
1712217078.194,-96.191,-31.738,-32.715,-99.121,0.000
1712217078.197,-85.938,-31.738,-47.363,-95.215,0.000
1712217078.201,-87.402,-34.180,-47.852,-101.562,0.000
1712217078.205,-83.496,-31.250,-45.898,-100.098,0.000
1712217078.209,-88.379,-30.273,-44.922,-87.891,0.000
1712217078.212,-72.266,-18.555,-39.062,-70.801,0.000
1712217078.216,-60.059,-17.090,-36.621,-57.617,0.000
1712217078.220,-69.336,-26.855,-37.109,-64.453,0.000
1712217078.224,-67.383,-30.273,-35.645,-68.848,0.000
1712217078.227,-52.246,-25.879,-40.527,-67.383,0.000
1712217078.233,-60.059,-18.555,-44.922,-67.383,0.000
1712217078.237,-67.871,-27.344,-43.457,-59.570,0.000
1712217078.241,-51.270,-29.785,-36.621,-52.246,0.000
1712217078.245,-56.641,-25.879,-30.273,-52.246,0.000
1712217078.248,-65.430,-26.855,-32.715,-49.316,0.000
1712217078.252,-56.152,-25.879,-37.598,-51.758,0.000
1712217078.256,-40.039,-26.367,-34.180,-49.316,0.000
1712217078.260,-39.062,-22.461,-27.832,-47.852,0.000
1712217078.263,-50.293,-23.438,-31.738,-48.828,0.000
1712217078.267,-50.293,-24.414,-32.227,-50.781,0.000
1712217078.271,-42.969,-25.879,-24.902,-56.152,0.000
1712217078.274,-43.457,-32.715,-26.855,-54.199,0.000
1712217078.280,-40.527,-32.227,-24.414,-53.711,0.000
1712217078.284,-43.457,-31.250,-18.066,-52.734,0.000
1712217078.288,-46.875,-34.180,-21.484,-54.688,0.000
1712217078.292,-39.062,-41.504,-22.461,-43.945,0.000
1712217078.295,-36.133,-32.715,-15.137,-35.645,0.000
1712217078.299,-43.457,-29.297,-14.648,-38.086,0.000
1712217078.303,-48.340,-39.551,-15.137,-34.668,0.000
1712217078.307,-38.086,-43.457,-19.531,-27.344,0.000
1712217078.310,-22.949,-41.504,-20.508,-23.926,0.000
1712217078.314,-15.625,-30.762,-15.625,-26.367,0.000
1712217078.318,-25.879,-23.926,-19.043,-27.832,0.000
1712217078.322,-28.809,-23.438,-22.949,-33.691,0.000
1712217078.327,-16.602,-28.320,-20.508,-35.645,0.000
1712217078.331,-19.043,-36.133,-19.531,-31.738,0.000
1712217078.335,-27.344,-33.691,-24.414,-30.273,0.000
1712217078.338,-34.668,-38.086,-31.250,-33.203,0.000
1712217078.342,-38.574,-36.133,-27.832,-34.180,0.000
1712217078.346,-33.203,-35.156,-28.320,-30.273,0.000
1712217078.350,-49.316,-34.180,-38.574,-40.039,0.000
1712217078.353,-58.594,-34.180,-43.457,-41.992,0.000
1712217078.357,-46.387,-35.645,-45.898,-39.062,0.000
1712217078.361,-38.574,-33.203,-31.738,-34.668,0.000
1712217078.365,-35.156,-31.738,-29.297,-28.809,0.000
1712217078.368,-43.457,-29.297,-34.180,-40.039,0.000
1712217078.374,-46.387,-31.250,-36.133,-48.828,0.000
1712217078.378,-42.969,-32.227,-34.668,-46.387,0.000
1712217078.381,-37.109,-29.297,-31.250,-45.410,0.000
1712217078.385,-36.133,-32.227,-32.715,-46.387,0.000
1712217078.389,-33.203,-30.273,-31.738,-41.016,0.000
1712217078.393,-32.715,-28.809,-33.203,-44.434,0.000
1712217078.396,-33.203,-34.180,-34.180,-46.875,0.000
1712217078.400,-35.645,-32.227,-34.668,-45.898,0.000
1712217078.404,-46.387,-26.855,-41.016,-50.293,0.000
1712217078.408,-46.387,-26.855,-47.852,-61.035,0.000
1712217078.411,-29.785,-31.738,-45.410,-63.477,0.000
1712217078.415,-31.738,-35.645,-41.504,-55.176,0.000
1712217078.421,-33.203,-32.227,-40.527,-55.664,0.000
1712217078.424,-34.180,-36.621,-41.992,-62.988,0.000
1712217078.428,-35.645,-41.016,-42.969,-55.176,0.000
1712217078.432,-32.227,-33.203,-47.363,-50.781,0.000
1712217078.436,-32.715,-37.109,-46.387,-49.805,0.000
1712217078.439,-26.367,-36.133,-41.016,-41.016,0.000
1712217078.443,-28.320,-31.738,-42.480,-38.574,0.000
1712217078.447,-41.016,-36.133,-47.852,-43.945,0.000
1712217078.451,-39.062,-36.621,-46.875,-52.734,0.000
1712217078.454,-30.762,-41.504,-44.922,-57.617,0.000
1712217078.458,-33.691,-48.828,-48.340,-52.734,0.000
1712217078.462,-27.344,-41.992,-51.758,-47.852,0.000
1712217078.467,-27.832,-38.086,-46.875,-47.852,0.000
1712217078.471,-46.387,-40.527,-44.434,-47.363,0.000
1712217078.475,-36.621,-40.527,-47.852,-47.852,0.000
1712217078.478,-27.832,-39.062,-44.922,-52.246,0.000
1712217078.482,-40.039,-35.156,-37.109,-55.176,0.000
1712217078.486,-43.945,-31.250,-38.574,-50.781,0.000
1712217078.490,-42.969,-37.598,-39.551,-47.363,0.000
1712217078.494,-32.227,-41.992,-36.621,-41.504,0.000
1712217078.497,-26.855,-41.504,-39.062,-42.480,0.000
1712217078.501,-35.156,-45.410,-39.551,-39.551,0.000
1712217078.505,-35.156,-40.039,-37.598,-34.668,0.000
1712217078.509,-45.410,-40.039,-39.551,-41.992,0.000
1712217078.514,-43.945,-41.504,-37.598,-41.016,0.000
1712217078.517,-26.367,-33.203,-36.133,-42.969,0.000
1712217078.521,-24.414,-27.832,-38.574,-51.758,0.000
1712217078.525,-39.062,-31.250,-35.156,-46.387,0.000
1712217078.529,-54.199,-34.668,-30.273,-46.387,0.000
1712217078.533,-37.598,-34.180,-32.715,-41.992,0.000
1712217078.536,-28.809,-32.227,-36.133,-31.738,0.000
1712217078.540,-37.598,-34.668,-36.133,-38.086,0.000
1712217078.544,-36.621,-31.738,-40.527,-49.805,0.000
1712217078.548,-35.645,-32.715,-44.922,-47.852,0.000
1712217078.551,-33.691,-37.109,-41.992,-37.598,0.000
1712217078.555,-25.391,-38.086,-36.133,-34.668,0.000
1712217078.561,-38.574,-38.086,-41.016,-34.180,0.000
1712217078.565,-48.340,-33.691,-41.016,-29.297,0.000
1712217078.568,-42.480,-37.109,-36.621,-27.344,0.000
1712217078.572,-48.340,-33.203,-41.504,-39.062,0.000
1712217078.576,-35.645,-27.344,-44.434,-42.480,0.000
1712217078.580,-35.156,-33.203,-41.992,-34.668,0.000
1712217078.584,-48.340,-33.203,-40.527,-38.574,0.000
1712217078.587,-36.133,-32.715,-40.039,-34.668,0.000
1712217078.591,-34.180,-26.855,-42.480,-34.180,0.000
1712217078.595,-35.645,-29.785,-41.992,-32.715,0.000
1712217078.599,-25.391,-36.133,-39.062,-38.574,0.000
1712217078.602,-26.367,-28.320,-35.156,-46.875,0.000
1712217078.608,-37.109,-33.203,-36.621,-43.457,0.000
1712217078.612,-46.875,-39.551,-41.992,-47.852,0.000
1712217078.616,-35.645,-28.809,-39.551,-52.246,0.000
1712217078.619,-27.832,-30.762,-34.180,-41.504,0.000
1712217078.623,-30.762,-29.297,-39.551,-42.480,0.000
1712217078.627,-29.785,-27.832,-37.109,-45.898,0.000
1712217078.631,-31.250,-30.762,-30.762,-36.621,0.000
1712217078.634,-27.832,-25.391,-31.738,-33.691,0.000
1712217078.638,-12.207,-22.949,-30.762,-24.902,0.000
1712217078.642,-18.555,-25.879,-35.156,-27.344,0.000
1712217078.646,-29.297,-25.391,-40.527,-41.992,0.000
1712217078.650,-29.297,-27.832,-38.086,-45.410,0.000
1712217078.655,-29.297,-27.832,-37.598,-50.293,0.000
1712217078.659,-31.250,-26.367,-41.016,-51.758,0.000
1712217078.663,-35.645,-25.879,-38.574,-50.781,0.000
1712217078.666,-37.598,-27.344,-30.762,-44.922,0.000
1712217078.670,-43.945,-28.320,-29.785,-50.293,0.000
1712217078.674,-34.180,-27.344,-37.109,-48.828,0.000
1712217078.678,-29.297,-34.180,-37.109,-39.062,0.000
1712217078.682,-41.992,-33.691,-40.039,-47.363,0.000
1712217078.685,-47.363,-38.086,-35.156,-40.527,0.000
1712217078.689,-52.246,-35.156,-34.668,-51.758,0.000
1712217078.693,-43.945,-27.832,-37.598,-66.406,0.000
1712217078.697,-32.227,-34.668,-37.598,-58.594,0.000
1712217078.702,-27.832,-35.645,-41.016,-56.152,0.000
1712217078.706,-40.039,-30.273,-33.691,-49.805,0.000
1712217078.710,-49.316,-28.320,-31.250,-42.480,0.000
1712217078.713,-30.762,-25.391,-36.621,-47.363,0.000
1712217078.717,-33.691,-27.832,-34.180,-53.223,0.000
1712217078.721,-39.062,-30.762,-32.715,-53.223,0.000
1712217078.725,-43.945,-33.203,-38.086,-60.059,0.000
1712217078.728,-48.828,-39.062,-41.016,-41.016,0.000
1712217078.732,-30.762,-33.203,-36.621,-24.902,0.000
1712217078.736,-27.344,-34.180,-34.668,-30.273,0.000
1712217078.740,-39.551,-38.574,-35.156,-37.109,0.000
1712217078.744,-47.363,-35.645,-31.250,-43.457,0.000
1712217078.749,-47.852,-26.855,-25.879,-41.504,0.000
1712217078.753,-41.016,-23.926,-24.414,-31.250,0.000
1712217078.756,-21.973,-33.691,-25.391,-24.414,0.000
1712217078.760,-26.367,-31.250,-25.879,-36.621,0.000
1712217078.764,-43.945,-22.461,-30.762,-38.086,0.000
1712217078.768,-50.293,-29.297,-36.133,-31.738,0.000
1712217078.771,-44.922,-32.715,-34.180,-31.250,0.000
1712217078.775,-34.180,-27.832,-39.551,-34.668,0.000
1712217078.779,-42.969,-24.902,-40.527,-43.457,0.000
1712217078.783,-47.363,-23.926,-40.527,-50.781,0.000
1712217078.787,-45.898,-26.855,-41.992,-48.828,0.000
1712217078.790,-46.875,-21.484,-36.621,-38.574,0.000
1712217078.795,-40.527,-20.996,-37.109,-33.691,0.000
1712217078.799,-39.062,-21.973,-35.156,-36.133,0.000
1712217078.803,-41.992,-18.066,-34.668,-43.945,0.000
1712217078.807,-41.504,-20.508,-35.156,-46.875,0.000
1712217078.811,-39.551,-15.625,-41.504,-41.016,0.000
1712217078.814,-33.203,-13.672,-46.387,-39.062,0.000
1712217078.818,-34.180,-24.902,-41.992,-39.062,0.000
1712217078.822,-42.969,-21.484,-43.457,-46.875,0.000
1712217078.826,-41.992,-22.949,-42.480,-49.805,0.000
1712217078.830,-43.945,-32.715,-40.527,-47.852,0.000
1712217078.833,-46.875,-27.832,-43.457,-50.781,0.000
1712217078.837,-47.852,-21.484,-43.457,-50.781,0.000
1712217078.842,-51.270,-22.949,-41.016,-45.410,0.000
1712217078.846,-37.598,-26.367,-42.480,-32.715,0.000
1712217078.850,-43.945,-25.879,-40.039,-30.762,0.000
1712217078.853,-46.387,-23.926,-33.203,-30.762,0.000
1712217078.857,-27.344,-23.438,-30.762,-29.297,0.000
1712217078.861,-31.738,-29.785,-26.855,-32.227,0.000
1712217078.865,-37.598,-31.250,-34.180,-33.203,0.000
1712217078.869,-43.457,-27.832,-38.574,-33.691,0.000
1712217078.872,-33.691,-30.273,-30.762,-37.598,0.000
1712217078.876,-20.508,-26.367,-31.738,-38.574,0.000
1712217078.880,-30.273,-31.250,-32.227,-33.691,0.000
1712217078.884,-36.133,-40.527,-30.273,-31.738,0.000
1712217078.889,-27.344,-32.715,-26.855,-36.133,0.000
1712217078.892,-21.484,-38.086,-26.367,-37.598,0.000
1712217078.896,-22.949,-47.852,-33.203,-34.180,0.000
1712217078.900,-21.484,-42.969,-41.016,-37.109,0.000
1712217078.904,-22.461,-41.504,-41.992,-42.480,0.000
1712217078.908,-33.691,-38.086,-41.992,-43.457,0.000
1712217078.911,-30.273,-40.039,-40.039,-31.250,0.000
1712217078.915,-22.949,-41.992,-36.621,-31.250,0.000
1712217078.919,-31.250,-37.109,-39.551,-44.922,0.000
1712217078.923,-36.621,-31.250,-39.551,-43.457,0.000
1712217078.926,-28.809,-28.320,-38.574,-36.133,0.000
1712217078.930,-25.879,-34.180,-40.039,-37.598,0.000
1712217078.936,-25.879,-34.180,-37.109,-41.016,0.000
1712217078.940,-30.273,-36.133,-30.762,-33.691,0.000
1712217078.943,-39.062,-33.691,-34.668,-25.879,0.000
1712217078.947,-26.367,-28.320,-34.180,-25.391,0.000
1712217078.951,-32.715,-33.691,-29.785,-31.250,0.000
1712217078.955,-51.758,-37.109,-33.691,-35.156,0.000
1712217078.959,-46.875,-32.715,-42.480,-39.062,0.000
1712217078.962,-45.410,-32.227,-43.457,-42.480,0.000
1712217078.966,-47.852,-29.785,-35.156,-43.457,0.000
1712217078.970,-47.363,-28.320,-36.133,-45.410,0.000
1712217078.974,-49.316,-32.715,-34.668,-42.969,0.000
1712217078.977,-37.598,-27.344,-27.344,-48.828,0.000
1712217078.983,-39.062,-23.438,-29.297,-50.781,0.000
1712217078.987,-40.527,-30.762,-38.086,-42.969,0.000
1712217078.990,-40.527,-31.250,-42.969,-44.434,0.000
1712217078.994,-38.574,-29.297,-41.504,-39.062,0.000
1712217078.998,-26.855,-38.574,-43.945,-30.762,0.000
1712217079.002,-16.113,-43.945,-44.434,-18.066,0.000
1712217079.006,-16.113,-38.574,-41.992,-23.438,0.000
1712217079.009,-47.852,-23.438,-44.922,-60.547,0.000
1712217079.013,-50.781,-17.090,-42.480,-65.918,0.000
1712217079.017,-40.039,-24.902,-38.086,-54.199,0.000
1712217079.021,-58.105,-21.484,-41.992,-73.730,0.000
1712217079.025,-60.059,-20.996,-41.504,-74.219,0.000
1712217079.030,-65.430,-29.785,-36.133,-70.312,0.000
1712217079.034,-62.012,-25.391,-28.809,-75.195,0.000
1712217079.037,-63.477,-23.438,-27.344,-72.266,0.000
1712217079.041,-74.219,-29.785,-35.645,-72.266,0.000
1712217079.045,-68.359,-31.250,-38.086,-62.012,0.000
1712217079.049,-53.711,-26.367,-33.691,-57.617,0.000
1712217079.053,-45.410,-24.902,-33.203,-50.293,0.000
1712217079.056,-41.504,-16.113,-31.250,-48.828,0.000
1712217079.060,-36.133,-15.625,-28.320,-53.223,0.000
1712217079.064,-41.504,-14.160,-26.367,-49.805,0.000
1712217079.068,-43.945,-12.207,-21.973,-47.363,0.000
1712217079.072,-38.086,-19.043,-23.926,-47.852,0.000
1712217079.077,-36.133,-22.949,-24.902,-49.805,0.000
1712217079.081,-37.598,-22.949,-30.273,-49.316,0.000
1712217079.084,-42.480,-15.625,-37.598,-44.434,0.000
1712217079.088,-43.945,-13.672,-24.902,-36.133,0.000
1712217079.092,-36.621,-23.438,-21.973,-35.156,0.000
1712217079.096,-41.504,-20.508,-30.762,-39.062,0.000
1712217079.100,-41.016,-15.137,-34.180,-40.039,0.000
1712217079.103,-28.320,-23.438,-28.320,-32.715,0.000
1712217079.107,-38.086,-23.438,-22.949,-23.438,0.000
1712217079.111,-49.316,-13.184,-25.391,-28.320,0.000
1712217079.115,-38.574,-13.672,-30.273,-40.039,0.000
1712217079.118,-37.598,-15.625,-28.320,-47.363,0.000
1712217079.124,-51.758,-19.043,-27.832,-41.992,0.000
1712217079.127,-52.734,-18.555,-29.297,-41.992,0.000
1712217079.131,-46.875,-16.602,-31.738,-49.316,0.000
1712217079.135,-32.715,-22.461,-34.180,-45.410,0.000
1712217079.139,-35.645,-32.715,-37.598,-35.645,0.000
1712217079.143,-42.480,-36.621,-38.086,-37.598,0.000
1712217079.146,-45.410,-35.156,-40.039,-48.340,0.000
1712217079.150,-48.828,-39.551,-41.504,-42.969,0.000
1712217079.154,-39.551,-40.039,-35.156,-40.039,0.000
1712217079.158,-43.945,-42.480,-37.598,-48.828,0.000
1712217079.162,-41.504,-43.945,-34.668,-38.086,0.000
1712217079.165,-25.391,-41.992,-30.273,-13.184,0.000
1712217079.170,-41.016,-28.320,-33.691,-31.738,0.000
1712217079.174,-53.711,-25.879,-38.574,-57.129,0.000
1712217079.178,-36.133,-34.180,-41.016,-58.105,0.000
1712217079.182,-41.504,-34.180,-43.945,-57.617,0.000
1712217079.185,-54.199,-33.691,-46.387,-49.316,0.000
1712217079.189,-46.387,-34.668,-41.992,-40.039,0.000
1712217079.193,-47.363,-39.551,-41.504,-34.668,0.000
1712217079.197,-48.828,-41.504,-40.527,-35.645,0.000
1712217079.201,-43.945,-35.156,-35.645,-41.016,0.000
1712217079.204,-44.922,-39.551,-35.645,-39.062,0.000
1712217079.208,-50.293,-45.898,-38.574,-41.992,0.000
1712217079.212,-47.852,-41.016,-42.480,-47.852,0.000
1712217079.217,-43.945,-40.039,-44.434,-46.387,0.000
1712217079.221,-41.992,-40.527,-46.875,-45.898,0.000
1712217079.225,-39.062,-30.762,-42.480,-38.086,0.000
1712217079.228,-42.480,-28.809,-32.227,-41.016,0.000
1712217079.232,-41.504,-33.691,-31.250,-48.828,0.000
1712217079.236,-24.902,-37.109,-34.180,-47.363,0.000
1712217079.240,-21.973,-43.457,-34.668,-40.527,0.000
1712217079.244,-34.180,-38.086,-31.250,-39.551,0.000
1712217079.247,-32.227,-30.273,-27.344,-46.387,0.000
1712217079.251,-27.832,-33.203,-34.180,-45.410,0.000
1712217079.255,-20.508,-37.598,-39.551,-42.480,0.000
1712217079.259,-18.555,-32.227,-34.668,-37.598,0.000
1712217079.264,-27.344,-27.832,-34.668,-42.480,0.000
1712217079.267,-39.551,-31.738,-39.062,-36.621,0.000
1712217079.271,-34.180,-31.250,-41.504,-41.016,0.000
1712217079.275,-21.973,-34.180,-35.156,-51.758,0.000
1712217079.279,-21.973,-34.668,-33.203,-43.945,0.000
1712217079.283,-35.645,-27.344,-36.133,-34.180,0.000
1712217079.286,-43.457,-27.344,-42.480,-34.668,0.000
1712217079.290,-42.969,-29.785,-46.387,-42.480,0.000
1712217079.294,-42.969,-29.297,-42.969,-47.363,0.000
1712217079.298,-36.621,-31.250,-39.062,-42.969,0.000
1712217079.302,-35.645,-35.156,-41.016,-38.086,0.000
1712217079.305,-47.363,-37.598,-47.363,-47.852,0.000
1712217079.311,-52.246,-40.527,-49.805,-56.152,0.000
1712217079.315,-44.434,-39.551,-48.340,-46.875,0.000
1712217079.318,-38.086,-33.691,-44.922,-42.969,0.000
1712217079.322,-40.527,-35.645,-44.434,-52.734,0.000
1712217079.326,-42.969,-37.598,-43.457,-53.711,0.000
1712217079.330,-22.949,-32.715,-41.992,-31.250,0.000
1712217079.334,10.254,-29.785,-40.039,-6.348,0.000
1712217079.337,-11.719,-36.621,-34.668,-33.203,0.000
1712217079.341,-57.129,-43.457,-36.133,-62.500,0.000
1712217079.345,-59.570,-40.039,-39.551,-57.129,0.000
1712217079.349,-49.316,-38.086,-39.551,-48.340,0.000
1712217079.353,-24.902,-42.480,-43.457,-27.344,0.000
1712217079.358,-25.879,-51.758,-43.457,-26.367,0.000
1712217079.362,-36.621,-59.082,-42.480,-36.133,0.000
1712217079.365,-29.785,-58.105,-39.551,-22.461,0.000
1712217079.369,-31.250,-59.082,-37.109,-7.812,0.000
1712217079.373,-20.508,-58.105,-38.086,2.930,0.000
1712217079.377,-17.578,-47.363,-35.156,-2.441,0.000
1712217079.381,-41.504,-40.039,-38.086,-24.414,0.000
1712217079.384,-42.480,-44.434,-39.551,-28.809,0.000
1712217079.388,-31.738,-42.969,-37.598,-15.625,0.000
1712217079.392,-25.879,-42.969,-38.574,-11.230,0.000
1712217079.396,-22.949,-46.387,-37.598,-20.020,0.000
1712217079.400,-39.062,-43.945,-41.992,-28.809,0.000
1712217079.405,-41.016,-36.621,-45.410,-24.414,0.000
1712217079.409,-38.086,-37.109,-43.457,-24.902,0.000
1712217079.412,-40.527,-36.621,-39.062,-30.762,0.000
1712217079.416,-33.691,-37.598,-39.551,-28.320,0.000
1712217079.420,-34.668,-44.922,-34.668,-28.809,0.000
1712217079.424,-39.551,-48.340,-33.203,-26.367,0.000
1712217079.428,-29.297,-44.434,-35.645,-16.113,0.000
1712217079.431,-19.531,-42.969,-33.691,-23.926,0.000
1712217079.435,-25.391,-45.898,-29.785,-21.973,0.000
1712217079.439,-30.273,-39.062,-28.809,-18.555,0.000
1712217079.443,-20.508,-32.715,-28.809,-21.973,0.000
1712217079.447,-21.484,-38.574,-29.297,-19.531,0.000
1712217079.452,-23.926,-39.062,-37.109,-22.949,0.000
1712217079.456,-21.973,-40.527,-41.016,-30.273,0.000
1712217079.459,-18.555,-44.922,-36.133,-22.461,0.000
1712217079.463,-18.555,-41.992,-35.156,-12.695,0.000
1712217079.467,-14.160,-37.109,-34.180,-14.160,0.000
1712217079.471,-15.625,-34.668,-32.715,-13.672,0.000
1712217079.475,-24.902,-41.504,-38.086,-14.648,0.000
1712217079.478,-27.344,-44.434,-35.645,-14.160,0.000
1712217079.482,-20.996,-36.621,-30.762,-15.625,0.000
1712217079.486,-20.996,-33.203,-32.227,-15.137,0.000
1712217079.490,-23.438,-33.203,-35.645,-19.531,0.000
1712217079.494,-8.789,-32.227,-34.180,-17.578,0.000
1712217079.499,-4.883,-37.598,-26.367,-12.695,0.000
1712217079.502,-20.020,-45.410,-30.273,-17.578,0.000
1712217079.506,-26.855,-50.781,-39.551,-23.926,0.000
1712217079.510,-21.973,-54.199,-41.504,-28.320,0.000
1712217079.514,-17.578,-50.781,-38.086,-17.578,0.000
1712217079.518,-19.531,-44.922,-38.086,-21.973,0.000
1712217079.521,-24.902,-41.504,-40.527,-42.480,0.000
1712217079.525,-20.508,-40.039,-38.086,-34.180,0.000
1712217079.529,-9.277,-37.109,-33.691,-23.926,0.000
1712217079.533,-19.531,-37.598,-32.227,-32.227,0.000
1712217079.537,-19.531,-37.109,-37.598,-34.180,0.000
1712217079.541,-14.648,-34.180,-38.574,-38.574,0.000
1712217079.545,-33.691,-34.180,-36.621,-45.410,0.000
1712217079.549,-36.621,-34.180,-38.574,-42.480,0.000
1712217079.553,-24.414,-36.133,-40.039,-37.598,0.000
1712217079.557,-25.879,-41.016,-45.410,-45.898,0.000
1712217079.561,-32.227,-43.457,-46.387,-50.293,0.000
1712217079.564,-39.062,-46.875,-43.945,-46.387,0.000
1712217079.568,-44.922,-46.387,-48.828,-47.363,0.000
1712217079.572,-36.621,-43.457,-52.246,-43.945,0.000
1712217079.576,-33.691,-41.992,-45.410,-49.805,0.000
1712217079.580,-35.645,-42.480,-41.016,-46.387,0.000
1712217079.584,-39.551,-39.551,-39.551,-39.551,0.000
1712217079.587,-49.316,-34.668,-40.527,-46.875,0.000
1712217079.592,-39.551,-30.762,-41.016,-38.574,0.000
1712217079.596,-26.367,-23.926,-42.480,-31.738,0.000
1712217079.600,-29.297,-25.391,-42.969,-49.805,0.000
1712217079.604,-37.109,-29.785,-37.598,-56.641,0.000
1712217079.607,-42.480,-30.762,-31.738,-46.875,0.000
1712217079.611,-47.363,-35.645,-29.297,-42.969,0.000
1712217079.615,-48.828,-37.109,-34.668,-42.480,0.000
1712217079.619,-36.621,-38.086,-40.527,-49.805,0.000
1712217079.623,-39.551,-43.945,-39.551,-55.176,0.000
1712217079.626,-38.574,-40.039,-37.109,-40.039,0.000
1712217079.630,-22.949,-29.297,-35.645,-22.949,0.000
1712217079.634,-29.785,-24.902,-42.969,-49.805,0.000
1712217079.639,-43.945,-33.203,-47.363,-76.660,0.000
1712217079.643,-61.523,-40.527,-45.898,-79.590,0.000
1712217079.646,-76.172,-39.551,-49.316,-75.684,0.000
1712217079.650,-68.359,-25.391,-49.316,-81.543,0.000
1712217079.654,-54.688,-20.020,-52.734,-93.262,0.000
1712217079.658,-51.270,-25.391,-54.199,-74.707,0.000
1712217079.662,-52.246,-30.762,-59.570,-70.312,0.000
1712217079.665,-52.246,-25.879,-60.059,-75.195,0.000
1712217079.669,-49.805,-20.020,-52.734,-70.801,0.000
1712217079.673,-52.734,-31.250,-51.270,-57.617,0.000
1712217079.677,-54.688,-29.785,-58.594,-70.312,0.000
1712217079.681,-65.918,-27.344,-58.594,-74.707,0.000
1712217079.686,-53.223,-39.551,-52.246,-71.289,0.000
1712217079.690,-51.270,-39.062,-46.387,-65.918,0.000
1712217079.694,-70.312,-40.039,-34.668,-49.805,0.000
1712217079.697,-62.012,-40.039,-27.832,-54.199,0.000
1712217079.701,-52.246,-34.668,-33.203,-62.988,0.000
1712217079.705,-59.082,-38.086,-31.250,-42.969,0.000
1712217079.709,-68.848,-33.203,-24.902,-57.129,0.000
1712217079.713,-58.105,-26.367,-17.090,-65.918,0.000
1712217079.716,-42.480,-23.438,-14.160,-55.176,0.000
1712217079.720,-50.293,-21.973,-14.160,-47.852,0.000
1712217079.724,-54.199,-22.949,-12.695,-77.637,0.000
1712217079.728,-56.152,-22.461,-15.625,-73.242,0.000
1712217079.733,-53.711,-26.855,-20.020,-57.129,0.000
1712217079.737,-49.805,-34.180,-25.879,-67.871,0.000
1712217079.741,-53.711,-33.691,-16.602,-44.922,0.000
1712217079.744,-47.852,-30.273,-15.137,-53.223,0.000
1712217079.748,-55.664,-29.785,-31.250,-53.223,0.000
1712217079.752,-61.523,-26.855,-27.832,-38.574,0.000
1712217079.756,-53.711,-29.785,-20.996,-53.223,0.000
1712217079.760,-58.105,-35.645,-20.020,-64.941,0.000
1712217079.763,-64.453,-36.133,-19.043,-50.781,0.000
1712217079.767,-72.266,-40.527,-21.973,-48.828,0.000
1712217079.771,-78.125,-39.062,-23.926,-61.523,0.000
1712217079.775,-83.984,-44.922,-23.438,-41.504,0.000
1712217079.780,-83.496,-52.734,-32.227,-61.523,0.000
1712217079.784,-64.453,-47.852,-35.645,-69.824,0.000
1712217079.788,-54.688,-46.875,-32.227,-57.129,0.000
1712217079.791,-63.477,-44.922,-27.344,-56.152,0.000
1712217079.795,-89.355,-47.852,-22.949,-38.574,0.000
1712217079.799,-69.824,-40.039,-23.926,-12.207,0.000
1712217079.803,-54.199,-28.809,-32.715,-53.223,0.000
1712217079.807,-73.730,-40.039,-34.668,-59.082,0.000
1712217079.810,-74.707,-45.410,-36.621,-37.109,0.000
1712217079.814,-65.430,-42.480,-41.504,-47.852,0.000
1712217079.818,-68.359,-43.457,-31.250,-37.598,0.000
1712217079.822,-72.754,-40.527,-35.645,-60.059,0.000
1712217079.827,-84.473,-39.551,-41.992,-73.730,0.000
1712217079.831,-92.773,-36.621,-41.504,-59.570,0.000
1712217079.834,-77.148,-36.621,-39.551,-33.203,0.000
1712217079.838,-73.730,-41.016,-38.574,-60.059,0.000
1712217079.842,-74.219,-42.480,-34.180,-70.312,0.000
1712217079.846,-81.055,-38.574,-32.715,-56.641,0.000
1712217079.850,-74.707,-39.062,-28.320,-25.879,0.000
1712217079.854,-66.895,-37.598,-29.785,-36.621,0.000
1712217079.857,-94.238,-41.992,-20.020,-13.184,0.000
1712217079.861,-79.590,-41.504,-14.160,-23.438,0.000
1712217079.865,-67.871,-33.203,-24.414,-44.434,0.000
1712217079.869,-71.289,-34.180,-20.996,4.883,0.000
1712217079.874,-49.805,-38.086,-17.090,9.277,0.000
1712217079.878,-47.363,-31.250,-22.949,-36.133,0.000
1712217079.881,-53.711,-22.949,-14.160,-17.090,0.000
1712217079.885,-67.871,-27.344,-9.277,25.879,0.000
1712217079.889,-78.125,-27.344,-28.320,-16.602,0.000
1712217079.893,-62.012,-27.344,-21.484,-0.488,0.000
1712217079.897,-51.270,-25.391,-15.137,39.062,0.000
1712217079.900,-59.082,-26.855,-15.137,37.598,0.000
1712217079.904,-40.039,-17.578,-20.508,-0.977,0.000
1712217079.908,-42.969,-10.742,-25.391,-29.785,0.000
1712217079.912,-63.477,-14.648,-12.207,-28.320,0.000
1712217079.916,-30.273,-15.625,-3.906,-20.020,0.000
1712217079.920,-41.016,-12.207,-12.207,-70.801,0.000
1712217079.924,-52.246,-4.395,-4.883,-56.152,0.000
1712217079.928,-43.457,-13.184,11.230,56.152,0.000
1712217079.932,-46.875,-12.695,1.953,33.203,0.000
1712217079.936,-60.547,-5.859,1.465,-16.113,0.000
1712217079.940,-72.754,-8.301,13.672,17.578,0.000
1712217079.943,-54.688,-11.230,17.090,31.250,0.000
1712217079.947,-84.473,-16.113,12.695,2.930,0.000
1712217079.951,-86.426,-10.742,12.695,-26.367,0.000
1712217079.955,-41.016,-9.766,14.160,-35.645,0.000
1712217079.959,-52.246,-12.695,9.277,-21.484,0.000
1712217079.963,-55.176,-10.742,11.719,44.922,0.000
1712217079.967,-45.898,-14.648,6.836,66.895,0.000
1712217079.971,-35.645,-11.230,-3.418,3.906,0.000
1712217079.975,-29.785,-13.672,1.465,31.738,0.000
1712217079.979,-28.320,-19.043,-2.930,33.691,0.000
1712217079.983,-30.762,-21.484,-8.789,-29.297,0.000
1712217079.986,-36.133,-20.020,-10.254,1.953,0.000
1712217079.990,-29.785,-22.949,-4.883,49.316,0.000
1712217079.994,-9.766,-25.879,-5.371,64.941,0.000
1712217079.998,-18.555,-32.227,-9.766,38.574,0.000
1712217080.002,-36.133,-31.738,-18.555,7.324,0.000
1712217080.005,-34.668,-24.902,-22.949,-3.418,0.000
1712217080.009,-24.414,-31.738,-17.578,20.996,0.000
1712217080.014,-12.207,-36.621,-17.090,31.250,0.000
1712217080.018,-22.461,-36.621,-11.230,49.805,0.000
1712217080.022,-20.996,-34.180,-12.207,65.430,0.000
1712217080.026,-25.391,-33.203,-20.508,26.855,0.000
1712217080.030,-22.461,-31.738,-17.578,20.508,0.000
1712217080.034,-15.625,-35.645,-17.578,27.832,0.000
1712217080.037,-6.836,-36.133,-23.438,15.137,0.000
1712217080.041,-9.277,-28.809,-24.414,5.859,0.000
1712217080.045,-19.531,-33.203,-25.391,-4.395,0.000
1712217080.049,-25.391,-36.133,-24.902,-7.812,0.000
1712217080.053,-15.137,-28.809,-25.391,12.695,0.000
1712217080.056,12.695,-31.738,-22.461,12.207,0.000
1712217080.062,-4.395,-31.738,-31.738,-32.715,0.000
1712217080.065,-34.668,-32.227,-37.109,-50.781,0.000
1712217080.069,-15.137,-36.621,-26.367,0.000,0.000
1712217080.073,-6.836,-31.250,-33.691,7.812,0.000
1712217080.077,-8.301,-25.391,-29.785,6.836,0.000
1712217080.081,6.348,-26.367,-29.785,-30.762,0.000
1712217080.085,-4.883,-20.508,-39.062,-60.059,0.000
1712217080.088,-36.621,-23.438,-24.414,0.000,0.000
1712217080.092,-33.691,-24.414,-26.855,-35.156,0.000
1712217080.096,-13.184,-16.113,-18.066,-81.543,0.000
1712217080.100,-32.227,-18.555,-0.977,-33.203,0.000
1712217080.104,-59.082,-25.391,-8.789,-20.996,0.000
1712217080.109,-66.406,-21.484,-10.254,-54.199,0.000
1712217080.112,-79.590,-9.277,-0.977,-118.652,0.000
1712217080.116,-90.332,-5.859,10.742,-108.887,0.000
1712217080.120,-134.277,-13.184,20.996,-80.566,0.000
1712217080.124,-163.086,-5.371,16.602,-128.906,0.000
1712217080.128,-151.367,1.465,20.508,-132.324,0.000
1712217080.132,-168.457,0.488,24.902,-152.344,0.000
1712217080.135,-198.730,5.859,31.250,-193.359,0.000
1712217080.139,-208.008,12.695,24.902,-220.215,0.000
1712217080.143,-212.891,20.020,17.578,-216.309,0.000
1712217080.147,-227.539,17.578,25.879,-223.145,0.000
1712217080.151,-215.820,14.160,20.996,-233.887,0.000
1712217080.156,-207.520,23.926,6.836,-233.887,0.000
1712217080.159,-205.566,27.832,1.953,-239.746,0.000
1712217080.163,-190.430,26.367,5.859,-230.469,0.000
1712217080.167,-187.988,20.996,9.766,-192.383,0.000
1712217080.171,-183.105,14.160,3.418,-187.012,0.000
1712217080.175,-165.039,19.531,-1.953,-230.957,0.000
1712217080.179,-159.668,17.090,-3.906,-190.918,0.000
1712217080.182,-160.156,7.324,-6.348,-131.348,0.000
1712217080.186,-148.926,2.930,-13.184,-147.949,0.000
1712217080.190,-144.531,-5.859,-24.902,-154.297,0.000
1712217080.194,-122.070,-18.555,-29.785,-110.352,0.000
1712217080.198,-91.797,-23.926,-37.109,-95.215,0.000
1712217080.202,-85.449,-32.227,-41.016,-120.117,0.000
1712217080.206,-79.590,-39.551,-40.527,-103.027,0.000
1712217080.210,-69.336,-41.992,-40.039,-66.895,0.000
1712217080.214,-49.316,-48.340,-44.434,-69.336,0.000
1712217080.218,-33.691,-53.711,-45.410,-49.805,0.000
1712217080.222,-40.527,-58.594,-48.340,-44.922,0.000
1712217080.225,-39.551,-60.547,-63.477,-49.316,0.000
1712217080.229,-29.785,-57.617,-74.219,-33.203,0.000
1712217080.233,-12.695,-52.734,-71.289,-18.066,0.000
1712217080.237,0.000,-59.570,-60.059,-21.484,0.000
1712217080.241,4.395,-66.895,-59.082,-22.949,0.000
1712217080.245,20.020,-61.523,-64.453,-7.812,0.000
1712217080.249,18.066,-64.453,-62.988,16.113,0.000
1712217080.253,15.137,-66.895,-59.082,26.855,0.000
1712217080.257,31.250,-63.477,-60.547,21.973,0.000
1712217080.261,28.809,-69.336,-66.406,28.320,0.000
1712217080.265,33.691,-69.824,-67.383,37.598,0.000
1712217080.268,37.109,-67.871,-67.871,40.039,0.000
1712217080.272,32.715,-70.312,-74.707,24.414,0.000
1712217080.276,43.457,-69.824,-72.266,24.414,0.000
1712217080.280,46.387,-68.848,-64.941,41.504,0.000
1712217080.284,37.109,-71.289,-62.988,20.508,0.000
1712217080.288,27.832,-75.195,-61.035,43.457,0.000
1712217080.291,30.273,-72.266,-63.965,68.359,0.000
1712217080.296,36.133,-71.777,-67.871,14.648,0.000
1712217080.300,53.223,-71.289,-63.965,5.371,0.000
1712217080.304,47.852,-65.430,-58.594,57.617,0.000
1712217080.308,34.668,-61.523,-62.500,28.809,0.000
1712217080.311,33.691,-58.105,-71.777,-10.254,0.000
1712217080.315,26.855,-51.270,-71.289,-28.809,0.000
1712217080.319,24.902,-50.781,-54.688,30.273,0.000
1712217080.323,18.066,-54.688,-52.246,65.918,0.000
1712217080.327,3.906,-52.734,-51.270,41.992,0.000
1712217080.331,18.555,-45.898,-52.734,43.945,0.000
1712217080.334,25.879,-45.410,-57.617,25.879,0.000
1712217080.338,14.160,-42.969,-63.477,-18.555,0.000
1712217080.343,4.395,-36.133,-69.824,-27.832,0.000
1712217080.347,15.625,-41.992,-64.453,26.367,0.000
1712217080.351,17.090,-46.387,-58.105,27.832,0.000
1712217080.354,12.207,-36.621,-59.570,-3.906,0.000
1712217080.358,21.484,-36.621,-66.406,-27.344,0.000
1712217080.362,6.836,-47.363,-62.988,-6.836,0.000
1712217080.366,-5.371,-43.457,-55.176,34.668,0.000
1712217080.370,4.395,-37.598,-56.641,-4.395,0.000
1712217080.374,6.836,-32.715,-59.570,-48.828,0.000
1712217080.377,-4.395,-36.133,-56.152,-13.184,0.000
1712217080.381,-3.418,-39.551,-54.199,5.859,0.000
1712217080.385,-5.371,-35.645,-55.176,0.488,0.000
1712217080.390,-21.973,-37.598,-53.711,2.930,0.000
1712217080.393,-19.043,-38.086,-48.828,17.090,0.000
1712217080.397,-20.020,-30.273,-46.387,-14.160,0.000
1712217080.401,-17.578,-29.785,-41.504,-34.668,0.000
1712217080.405,-19.531,-42.969,-38.574,-27.344,0.000
1712217080.409,-9.766,-43.457,-44.922,-35.645,0.000
1712217080.413,-17.578,-31.250,-51.270,-20.020,0.000
1712217080.416,-28.320,-33.691,-43.945,-23.438,0.000
1712217080.420,-38.086,-44.922,-43.457,-30.762,0.000
1712217080.424,-41.504,-45.898,-38.086,-8.789,0.000
1712217080.428,-29.297,-38.574,-36.621,-11.719,0.000
1712217080.432,-26.855,-39.062,-43.457,-27.832,0.000
1712217080.437,-35.156,-38.086,-46.387,-39.551,0.000
1712217080.440,-41.992,-41.016,-39.551,-25.391,0.000
1712217080.444,-25.879,-33.203,-44.434,-25.879,0.000
1712217080.448,-37.109,-37.598,-44.434,-13.672,0.000
1712217080.452,-50.293,-47.852,-32.715,-11.230,0.000
1712217080.456,-38.086,-38.086,-42.969,-27.832,0.000
1712217080.460,-26.367,-26.367,-51.270,-33.691,0.000
1712217080.463,-37.598,-32.715,-45.898,-29.297,0.000
1712217080.467,-31.738,-40.527,-39.062,-32.227,0.000
1712217080.471,-22.461,-32.227,-40.527,-28.809,0.000
1712217080.475,-40.039,-26.855,-41.992,-15.625,0.000
1712217080.479,-44.434,-35.645,-36.133,-18.066,0.000
1712217080.484,-20.996,-52.734,-31.738,-14.648,0.000
1712217080.488,-38.574,-36.621,-37.598,-24.414,0.000
1712217080.491,-65.430,-31.250,-36.133,-30.273,0.000
1712217080.495,-45.410,-48.340,-29.785,-35.156,0.000
1712217080.499,-30.273,-46.875,-35.645,-34.180,0.000
1712217080.503,-41.016,-49.805,-43.945,-38.574,0.000
1712217080.507,-28.809,-45.898,-38.086,-25.391,0.000
1712217080.511,-56.152,-36.133,-29.297,-3.418,0.000
1712217080.514,-35.156,-35.645,-27.832,-10.254,0.000
1712217080.518,-11.230,-34.668,-29.785,-11.230,0.000
1712217080.522,-48.340,-41.504,-27.832,-30.273,0.000
1712217080.526,-52.246,-30.273,-31.738,-41.992,0.000
1712217080.531,-52.734,-18.066,-26.855,-27.344,0.000
1712217080.535,-44.922,-38.574,-17.578,-18.555,0.000
1712217080.538,-31.250,-42.480,-17.578,-2.441,0.000
1712217080.542,-47.852,-32.227,-21.973,-27.344,0.000
1712217080.546,-60.547,-32.227,-24.902,-52.246,0.000
1712217080.550,-39.551,-32.227,-28.320,-37.109,0.000
1712217080.554,-35.645,-32.715,-26.855,-26.367,0.000
1712217080.558,-28.320,-29.785,-20.508,-23.926,0.000
1712217080.561,-23.438,-26.367,-26.367,-15.137,0.000
1712217080.565,-58.105,-25.879,-32.227,-15.625,0.000
1712217080.569,-77.637,-38.086,-27.344,-32.227,0.000
1712217080.573,-46.387,-31.250,-22.949,-30.762,0.000
1712217080.578,-25.391,-24.902,-18.066,-33.691,0.000
1712217080.581,-25.391,-29.785,-17.578,-20.996,0.000
1712217080.585,-43.457,-23.438,-20.020,-21.484,0.000
1712217080.589,-38.086,-34.180,-14.648,-28.809,0.000
1712217080.593,-33.203,-38.574,-21.484,-23.438,0.000
1712217080.597,-46.875,-52.246,-23.926,-14.648,0.000
1712217080.601,-32.715,-50.293,-21.484,-28.809,0.000
1712217080.604,-47.852,-32.227,-35.645,-65.430,0.000
1712217080.608,-69.336,-48.828,-33.203,-49.805,0.000
1712217080.612,-54.688,-44.922,-32.715,-7.812,0.000
1712217080.616,-40.527,-43.945,-40.527,-7.812,0.000
1712217080.620,-39.551,-46.875,-35.156,-19.043,0.000
1712217080.624,-65.918,-39.551,-35.156,-24.902,0.000
1712217080.628,-68.848,-51.270,-26.367,-17.090,0.000
1712217080.632,-19.043,-55.176,-17.578,31.250,0.000
1712217080.636,-9.766,-45.410,-28.809,3.906,0.000
1712217080.640,-52.734,-45.410,-31.250,-37.598,0.000
1712217080.644,-44.922,-39.551,-27.832,-53.223,0.000
1712217080.648,-24.414,-47.363,-25.391,-48.340,0.000
1712217080.651,-44.922,-47.363,-28.809,-15.625,0.000
1712217080.655,-58.105,-38.574,-31.738,-13.672,0.000
1712217080.659,-47.852,-36.621,-30.762,-36.133,0.000
1712217080.663,-37.598,-21.484,-31.250,-57.129,0.000
1712217080.667,-58.594,-34.668,-28.320,-45.410,0.000
1712217080.671,-58.105,-39.062,-23.438,-41.016,0.000
1712217080.675,-36.133,-35.156,-27.832,-63.965,0.000
1712217080.679,-35.645,-34.668,-30.762,-20.996,0.000
1712217080.683,-27.832,-44.434,-22.461,7.324,0.000
1712217080.687,-40.039,-45.898,-28.320,-38.086,0.000
1712217080.690,-71.777,-34.668,-33.691,-58.594,0.000
1712217080.694,-74.707,-40.527,-29.785,-22.461,0.000
1712217080.698,-51.270,-42.969,-27.344,-2.930,0.000
1712217080.702,-10.254,-39.062,-14.648,-11.719,0.000
1712217080.706,-32.715,-30.762,-13.184,-13.672,0.000
1712217080.710,-42.969,-30.273,-19.531,-35.645,0.000
1712217080.714,-26.855,-40.039,-18.555,-32.227,0.000
1712217080.718,-16.113,-45.410,-16.113,-11.230,0.000
1712217080.722,-16.113,-47.852,-17.090,-24.414,0.000
1712217080.726,-25.879,-48.828,-14.648,-24.902,0.000
1712217080.730,-29.297,-39.551,-14.648,-20.508,0.000
1712217080.733,-17.578,-46.875,-17.578,-4.883,0.000
1712217080.737,-9.277,-46.387,-27.344,-22.949,0.000
1712217080.741,-31.250,-44.434,-23.438,-37.109,0.000
1712217080.745,-22.949,-33.691,-19.043,-23.438,0.000
1712217080.749,1.465,-20.508,-26.855,-33.203,0.000
1712217080.753,-15.625,-38.086,-15.625,-30.273,0.000
1712217080.756,-17.090,-31.250,-16.602,-11.719,0.000
1712217080.760,-13.184,-25.879,-23.926,-6.836,0.000
1712217080.765,-39.551,-36.621,-26.367,-37.109,0.000
1712217080.769,-29.785,-38.574,-22.461,-20.020,0.000
1712217080.772,-9.277,-38.574,-20.996,-25.879,0.000
1712217080.776,-17.578,-46.387,-24.902,-46.387,0.000
1712217080.780,-43.945,-46.387,-22.461,-49.805,0.000
1712217080.784,-59.570,-32.227,-23.926,-47.852,0.000
1712217080.788,-45.898,-35.645,-24.414,-21.973,0.000
1712217080.792,-24.414,-34.180,-21.484,-26.855,0.000
1712217080.795,-19.043,-22.461,-23.926,-33.203,0.000
1712217080.799,-14.648,-26.367,-20.020,-28.809,0.000
1712217080.803,-13.672,-33.691,-18.066,-34.668,0.000
1712217080.807,-22.949,-35.645,-17.578,-24.414,0.000
1712217080.812,-27.344,-41.504,-17.090,-12.207,0.000
1712217080.816,-31.738,-39.551,-21.484,-14.160,0.000
1712217080.820,-15.625,-36.621,-26.855,-26.855,0.000
1712217080.823,-30.762,-44.434,-22.461,-47.852,0.000
1712217080.827,-42.969,-34.180,-27.344,-61.523,0.000
1712217080.831,-47.363,-29.297,-26.855,-47.852,0.000
1712217080.835,-35.156,-26.855,-24.902,-30.762,0.000
1712217080.839,-12.207,-31.250,-27.344,-35.645,0.000
1712217080.843,-28.809,-29.297,-21.484,-30.273,0.000
1712217080.846,-28.320,-23.926,-23.438,-29.785,0.000
1712217080.850,-28.320,-31.250,-26.367,-39.551,0.000
1712217080.854,-38.574,-32.227,-25.879,-37.598,0.000
1712217080.859,-38.086,-43.945,-24.414,-25.879,0.000
1712217080.863,-29.785,-32.227,-30.273,-41.016,0.000
1712217080.867,-21.973,-31.250,-28.809,-31.738,0.000
1712217080.870,-25.391,-43.945,-25.391,-20.508,0.000
1712217080.874,-37.598,-43.457,-27.344,-38.574,0.000
1712217080.878,-46.875,-41.504,-27.344,-39.062,0.000
1712217080.882,-37.598,-43.457,-28.320,-56.152,0.000
1712217080.886,-42.480,-46.387,-25.879,-45.410,0.000
1712217080.890,-47.852,-45.898,-25.391,-24.414,0.000
1712217080.893,-25.391,-43.457,-23.926,-33.691,0.000
1712217080.897,-44.922,-38.574,-27.344,-28.320,0.000
1712217080.901,-54.199,-41.016,-26.367,-44.922,0.000
1712217080.906,-38.574,-43.945,-19.531,-39.551,0.000
1712217080.910,-47.363,-35.645,-29.297,-38.574,0.000
1712217080.913,-48.340,-28.809,-32.227,-32.715,0.000
1712217080.917,-6.836,-31.738,-32.227,-27.344,0.000
1712217080.921,16.113,-44.922,-26.367,-17.090,0.000
1712217080.925,-29.297,-44.434,-20.508,-11.719,0.000
1712217080.929,-74.219,-41.016,-24.902,-46.875,0.000
1712217080.933,-58.594,-36.133,-26.367,-29.785,0.000
1712217080.937,-7.324,-41.504,-27.344,-12.207,0.000
1712217080.940,-19.531,-37.598,-28.320,-33.691,0.000
1712217080.944,-54.688,-34.668,-26.855,-63.965,0.000
1712217080.948,-57.617,-47.363,-25.391,-41.992,0.000
1712217080.953,-58.105,-49.316,-28.809,-52.246,0.000
1712217080.957,-49.316,-50.781,-24.414,-47.363,0.000
1712217080.960,-26.367,-37.109,-22.461,-11.719,0.000
1712217080.964,-48.828,-34.180,-21.973,-45.898,0.000
1712217080.968,-64.941,-39.062,-24.414,-59.570,0.000
1712217080.972,-20.020,-38.086,-27.832,-33.691,0.000
1712217080.976,-22.949,-38.574,-26.855,-21.973,0.000
1712217080.980,-50.781,-35.645,-29.785,-30.762,0.000
1712217080.983,-54.688,-42.480,-28.809,-21.484,0.000
1712217080.987,-29.297,-29.785,-28.809,-15.137,0.000
1712217080.991,-36.621,-12.207,-29.785,-19.531,0.000
1712217080.995,-45.410,-22.461,-31.738,-24.414,0.000
1712217081.000,-25.391,-36.133,-29.297,-14.160,0.000
1712217081.003,-32.227,-24.902,-29.785,-28.320,0.000
1712217081.007,-36.621,-30.762,-28.320,-36.621,0.000
1712217081.011,-36.133,-31.738,-28.809,-28.809,0.000
1712217081.015,-14.160,-38.086,-26.855,-33.203,0.000
1712217081.019,-4.883,-47.363,-30.273,-32.715,0.000
1712217081.023,-20.508,-42.969,-32.227,-37.598,0.000
1712217081.026,-27.344,-35.645,-30.273,-32.227,0.000
1712217081.030,-19.043,-22.461,-29.785,-21.973,0.000
1712217081.034,-28.320,-27.832,-31.250,-31.250,0.000
1712217081.038,-27.832,-39.062,-34.180,-28.809,0.000
1712217081.042,-21.973,-26.855,-35.645,-20.020,0.000
1712217081.046,-32.227,-23.438,-37.598,-41.016,0.000
1712217081.050,-43.945,-22.461,-33.203,-41.992,0.000
1712217081.054,-41.504,-22.461,-31.738,-31.738,0.000
1712217081.058,-20.996,-29.297,-25.879,-3.906,0.000
1712217081.062,-13.184,-27.832,-20.996,-1.953,0.000
1712217081.066,-27.832,-31.250,-22.461,-25.879,0.000
1712217081.069,-39.551,-29.785,-23.438,-14.160,0.000
1712217081.073,-33.203,-27.344,-23.438,8.301,0.000
1712217081.077,-34.668,-26.367,-23.926,3.906,0.000
1712217081.081,-37.598,-26.367,-25.391,-7.812,0.000
1712217081.085,-21.973,-26.855,-25.391,-22.461,0.000
1712217081.089,-34.668,-27.344,-27.832,-26.855,0.000
1712217081.094,-43.457,-34.180,-22.461,-18.555,0.000
1712217081.097,-16.602,-27.832,-12.695,1.953,0.000
1712217081.101,-19.043,-13.184,-15.625,-17.090,0.000
1712217081.105,-22.949,-20.508,-20.508,-25.879,0.000
1712217081.109,-23.926,-30.273,-16.602,-9.766,0.000
1712217081.113,-0.488,-25.879,-15.625,-13.672,0.000
1712217081.117,-23.926,-30.273,-20.020,-16.602,0.000
1712217081.120,-40.527,-26.855,-22.949,-32.227,0.000
1712217081.124,-7.324,-21.484,-21.973,-25.879,0.000
1712217081.128,-10.254,-18.555,-26.855,-16.602,0.000
1712217081.132,-19.531,-10.742,-29.785,-38.086,0.000
1712217081.136,-29.297,-12.207,-26.367,-40.527,0.000
1712217081.140,-24.902,-18.555,-27.344,-50.781,0.000
1712217081.144,-18.555,-19.531,-24.902,-28.320,0.000
1712217081.148,-25.391,-18.066,-21.973,-9.277,0.000
1712217081.152,-35.156,-19.531,-20.020,-38.086,0.000
1712217081.156,-37.109,-26.855,-15.625,-29.297,0.000
1712217081.159,-17.090,-26.367,-15.625,2.930,0.000
1712217081.163,-37.109,-19.531,-22.461,-24.414,0.000
1712217081.167,-44.922,-20.020,-20.508,-12.695,0.000
1712217081.171,15.625,-27.832,-15.137,3.906,0.000
1712217081.175,-4.883,-31.250,-15.625,-11.719,0.000
1712217081.179,-41.992,-31.738,-17.090,-33.203,0.000
1712217081.183,-27.832,-22.461,-20.020,-41.992,0.000
1712217081.187,-32.227,-20.020,-19.043,-35.156,0.000
1712217081.191,-43.457,-30.762,-20.508,-42.969,0.000
1712217081.195,-30.762,-25.879,-26.367,-37.598,0.000
1712217081.199,-20.508,-16.113,-30.273,-32.715,0.000
1712217081.203,-23.926,-30.762,-22.949,-29.297,0.000
1712217081.207,-29.785,-29.297,-23.438,-36.133,0.000
1712217081.210,-41.016,-20.508,-25.391,-37.109,0.000
1712217081.214,-55.176,-20.996,-24.414,-50.781,0.000
1712217081.218,-44.434,-12.207,-25.391,-63.965,0.000
1712217081.222,-51.270,-27.344,-27.344,-45.410,0.000
1712217081.226,-62.988,-39.551,-35.645,-35.156,0.000
1712217081.230,-44.922,-26.367,-33.203,-37.109,0.000
1712217081.234,-37.598,-23.926,-29.785,-44.434,0.000
1712217081.238,-28.320,-26.367,-33.203,-54.688,0.000
1712217081.242,-34.668,-26.367,-23.926,-21.484,0.000
1712217081.246,-38.086,-23.438,-23.438,-23.438,0.000
1712217081.250,-41.504,-20.508,-29.297,-54.199,0.000
1712217081.254,-46.875,-27.344,-29.785,-51.270,0.000
1712217081.257,-32.715,-36.133,-26.367,-31.250,0.000
1712217081.261,-16.113,-25.879,-26.855,-29.297,0.000
1712217081.265,-25.879,-26.367,-23.926,-7.812,0.000
1712217081.269,-23.926,-20.508,-26.855,-22.949,0.000
1712217081.273,-39.551,-21.973,-27.344,-45.898,0.000
1712217081.277,-40.039,-28.320,-26.367,-45.410,0.000
1712217081.281,-25.879,-23.438,-26.367,-43.457,0.000
1712217081.285,-22.949,-22.949,-23.926,-24.414,0.000
1712217081.289,-16.602,-20.996,-27.344,-12.695,0.000
1712217081.293,-33.203,-24.902,-31.250,-35.645,0.000
1712217081.297,-11.230,-16.113,-31.738,-44.434,0.000
1712217081.301,-21.973,-17.578,-28.809,-14.160,0.000
1712217081.304,-52.246,-13.672,-31.250,-30.273,0.000
1712217081.308,-52.734,-12.207,-32.715,-47.852,0.000
1712217081.312,-56.152,-23.926,-38.086,-13.672,0.000
1712217081.316,-39.551,-28.809,-36.621,-15.625,0.000
1712217081.320,-24.414,-32.227,-28.809,-45.898,0.000
1712217081.324,-53.711,-36.621,-27.832,-63.965,0.000
1712217081.328,-45.410,-35.645,-28.320,-45.898,0.000
1712217081.332,-39.551,-28.809,-26.367,-19.531,0.000
1712217081.336,-58.594,-21.973,-26.367,-35.645,0.000
1712217081.340,-42.480,-29.297,-28.320,-41.504,0.000
1712217081.344,-25.391,-32.227,-20.508,-28.809,0.000
1712217081.347,-30.762,-22.461,-25.879,-43.945,0.000
1712217081.351,-42.969,-19.043,-30.273,-51.758,0.000
1712217081.355,-38.086,-21.484,-31.250,-35.156,0.000
1712217081.359,-23.438,-23.438,-31.738,-33.203,0.000
1712217081.363,-23.438,-15.137,-33.203,-45.898,0.000
1712217081.367,-28.809,-8.789,-33.203,-27.344,0.000
1712217081.371,-22.461,-14.648,-29.785,-33.203,0.000
1712217081.375,-35.645,-25.391,-27.344,-31.738,0.000
1712217081.379,-24.414,-14.160,-28.320,-16.602,0.000
1712217081.383,-11.719,-13.184,-30.762,-43.945,0.000
1712217081.387,-36.621,-12.207,-35.156,-60.059,0.000
1712217081.390,-28.809,-8.301,-38.574,-46.875,0.000
1712217081.394,-15.137,-20.020,-39.062,-38.574,0.000
1712217081.398,-21.973,-26.855,-42.969,-42.969,0.000
1712217081.402,-31.738,-21.973,-44.434,-28.809,0.000
1712217081.406,-35.156,-20.508,-39.062,-38.086,0.000
1712217081.410,-40.527,-25.391,-30.762,-49.316,0.000
1712217081.414,-31.738,-20.020,-31.250,-19.043,0.000
1712217081.417,-3.906,-17.578,-32.227,-15.137,0.000
1712217081.422,-11.719,-16.602,-32.227,-25.879,0.000
1712217081.426,-28.809,-18.066,-31.738,-38.086,0.000
1712217081.430,-40.039,-22.461,-31.738,-37.109,0.000
1712217081.433,-38.086,-16.113,-39.551,-33.691,0.000
1712217081.437,-22.461,-15.625,-39.551,-36.133,0.000
1712217081.441,-16.602,-23.926,-27.832,-29.785,0.000
1712217081.445,-0.977,-16.602,-27.832,-34.668,0.000
1712217081.449,-19.531,-6.836,-27.832,-37.598,0.000
1712217081.453,-51.270,-14.160,-23.438,-44.434,0.000
1712217081.457,-39.551,-13.672,-23.926,-31.738,0.000
1712217081.460,-33.203,-7.812,-24.414,3.418,0.000
1712217081.464,-26.367,-9.277,-29.297,-49.805,0.000
1712217081.469,-26.855,-9.766,-34.668,-62.988,0.000
1712217081.472,-36.133,-16.602,-32.715,-23.926,0.000
1712217081.476,-22.949,-18.555,-32.227,-11.719,0.000
1712217081.480,-3.906,-15.625,-34.180,-10.742,0.000
1712217081.484,-12.695,-17.090,-28.320,-28.320,0.000
1712217081.488,-37.598,-20.996,-25.879,-51.270,0.000
1712217081.492,-55.176,-20.020,-29.785,-52.734,0.000
1712217081.496,-45.898,-20.020,-25.391,-31.738,0.000
1712217081.499,-26.367,-17.578,-26.367,-45.410,0.000
1712217081.503,-27.832,-13.184,-30.762,-48.340,0.000
1712217081.507,-31.738,-23.438,-23.926,-38.086,0.000
1712217081.511,-30.273,-28.320,-25.391,-44.922,0.000
1712217081.515,-42.480,-24.902,-23.438,-44.434,0.000
1712217081.519,-66.895,-27.344,-29.297,-59.570,0.000
1712217081.523,-58.594,-24.414,-28.320,-49.805,0.000
1712217081.527,-27.344,-17.090,-14.648,-21.484,0.000
1712217081.531,-23.438,-13.184,-19.043,-30.762,0.000
1712217081.535,-41.992,-18.555,-22.461,-24.414,0.000
1712217081.538,-54.199,-20.508,-19.531,-26.367,0.000
1712217081.542,-20.020,-20.020,-19.043,-40.039,0.000
1712217081.546,-7.324,-26.855,-17.090,-35.645,0.000
1712217081.550,-33.203,-21.484,-23.926,-16.113,0.000
1712217081.554,-21.484,-20.508,-27.344,-32.227,0.000
1712217081.558,-31.250,-24.414,-20.996,-34.668,0.000
1712217081.562,-36.133,-20.996,-20.996,-16.113,0.000
1712217081.566,-31.738,-24.902,-26.367,-35.156,0.000
1712217081.570,-30.273,-24.414,-27.832,-55.176,0.000
1712217081.574,-40.527,-19.531,-22.461,-21.484,0.000
1712217081.578,-43.457,-18.555,-26.367,-8.301,0.000
1712217081.582,-34.180,-20.508,-33.203,-48.340,0.000
1712217081.586,-43.945,-17.090,-33.691,-70.801,0.000
1712217081.589,-48.340,-14.160,-22.461,-41.992,0.000
1712217081.593,-43.945,-20.996,-20.996,-28.320,0.000
1712217081.597,-18.066,-19.043,-22.461,-35.645,0.000
1712217081.601,-17.090,-19.531,-15.137,-22.461,0.000
1712217081.605,-39.062,-25.879,-18.555,-20.020,0.000
1712217081.609,-43.457,-38.086,-22.461,-32.715,0.000
1712217081.613,-32.227,-24.414,-22.461,-49.805,0.000
1712217081.617,-16.602,-15.625,-19.043,-24.902,0.000
1712217081.621,-9.766,-31.738,-19.043,-17.090,0.000
1712217081.625,-20.996,-32.227,-27.344,-40.039,0.000
1712217081.629,-31.738,-22.461,-29.785,-43.945,0.000
1712217081.633,-19.531,-24.902,-23.438,-15.625,0.000
1712217081.636,-29.297,-19.531,-28.320,-12.207,0.000
1712217081.640,-42.969,-20.020,-35.156,-23.438,0.000
1712217081.644,-39.551,-37.598,-33.203,-21.973,0.000
1712217081.648,-38.086,-30.762,-39.062,-47.852,0.000
1712217081.652,-41.016,-33.203,-36.621,-28.809,0.000
1712217081.656,-26.855,-30.762,-30.762,-15.625,0.000
1712217081.660,-20.020,-16.113,-39.551,-23.926,0.000
1712217081.664,-23.926,-20.020,-36.133,-30.762,0.000
1712217081.668,-20.020,-25.391,-31.250,-41.992,0.000
1712217081.672,-26.367,-22.949,-40.039,-37.598,0.000
1712217081.676,-33.691,-32.227,-34.180,-19.043,0.000
1712217081.679,-24.902,-27.832,-31.738,-21.484,0.000
1712217081.683,-29.297,-16.113,-39.551,-40.527,0.000
1712217081.687,-38.086,-24.414,-47.852,-55.664,0.000
1712217081.691,-32.715,-20.020,-40.527,-44.922,0.000
1712217081.695,-29.785,-20.508,-32.715,-35.645,0.000
1712217081.699,-22.461,-25.391,-38.574,-25.879,0.000
1712217081.703,-24.902,-20.996,-41.992,-28.320,0.000
1712217081.707,-20.020,-16.602,-44.434,-50.293,0.000
1712217081.711,-32.715,-28.809,-36.621,-27.832,0.000
1712217081.715,-40.039,-18.555,-40.039,-57.129,0.000
1712217081.719,-22.461,2.441,-33.203,-54.199,0.000
1712217081.723,-22.461,-6.836,-23.926,-14.648,0.000
1712217081.726,-8.301,-8.301,-31.250,-36.133,0.000
1712217081.730,-23.438,-18.555,-35.645,-39.551,0.000
1712217081.734,-48.340,-28.320,-33.203,-38.574,0.000
1712217081.738,-42.480,-29.785,-27.344,-37.598,0.000
1712217081.742,-38.086,-19.531,-28.809,-30.273,0.000
1712217081.746,-19.043,-13.672,-34.180,-40.527,0.000
1712217081.750,-6.836,-23.926,-28.320,-23.438,0.000
1712217081.754,-31.738,-25.879,-21.484,-18.066,0.000
1712217081.758,-43.457,-25.391,-26.855,-61.523,0.000
1712217081.762,-31.250,-38.574,-27.344,-52.246,0.000
1712217081.766,-56.641,-45.410,-25.879,-49.316,0.000
1712217081.769,-66.406,-26.367,-32.227,-59.082,0.000
1712217081.773,-51.270,-20.508,-35.156,-45.898,0.000
1712217081.777,-56.641,-24.414,-33.691,-31.250,0.000
1712217081.781,-54.199,-27.344,-37.109,-67.383,0.000
1712217081.785,-51.270,-38.574,-32.227,-59.082,0.000
1712217081.789,-49.316,-39.551,-36.133,-21.973,0.000
1712217081.793,-55.664,-41.992,-39.062,-28.320,0.000
1712217081.797,-42.969,-39.551,-35.156,-40.527,0.000
1712217081.801,-29.785,-33.691,-37.598,-51.758,0.000
1712217081.805,-32.715,-29.785,-36.621,-52.734,0.000
1712217081.809,-35.645,-27.832,-35.156,-45.898,0.000
1712217081.812,-35.645,-24.902,-34.668,-36.621,0.000
1712217081.816,-6.836,-25.879,-31.250,-43.945,0.000
1712217081.820,-25.391,-24.902,-31.738,-49.316,0.000
1712217081.824,-39.062,-14.160,-37.109,-44.434,0.000
1712217081.828,-27.344,-23.926,-27.344,-30.273,0.000
1712217081.832,-34.668,-39.551,-21.484,-27.832,0.000
1712217081.835,-33.203,-29.785,-33.691,-45.898,0.000
1712217081.839,-38.086,-28.320,-38.086,-32.227,0.000
1712217081.844,-34.668,-25.879,-34.180,-31.250,0.000
1712217081.848,-38.086,-23.926,-30.762,-51.270,0.000
1712217081.851,-49.316,-35.156,-33.203,-38.574,0.000
1712217081.855,-34.180,-38.574,-35.645,-27.832,0.000
1712217081.859,-39.062,-30.762,-40.527,-53.223,0.000
1712217081.863,-54.688,-38.086,-39.551,-38.086,0.000
1712217081.867,-55.664,-39.062,-40.039,-18.555,0.000
1712217081.871,-60.059,-30.762,-42.480,-48.828,0.000
1712217081.875,-41.504,-31.250,-38.086,-58.105,0.000
1712217081.878,-42.969,-35.156,-36.133,-37.598,0.000
1712217081.882,-38.086,-29.297,-34.180,-39.062,0.000
1712217081.886,-13.672,-19.531,-29.785,-38.086,0.000
1712217081.890,-36.621,-24.414,-32.715,-43.457,0.000
1712217081.894,-45.898,-35.156,-29.297,-39.062,0.000
1712217081.898,-32.227,-31.250,-23.926,-33.691,0.000
1712217081.902,-34.668,-19.531,-28.320,-38.086,0.000
1712217081.906,-36.133,-25.391,-28.809,-31.250,0.000
1712217081.910,-37.109,-39.551,-29.785,-28.809,0.000
1712217081.914,-43.945,-39.062,-36.621,-31.250,0.000
1712217081.917,-40.527,-36.621,-34.180,-38.574,0.000
1712217081.921,-45.898,-30.762,-34.668,-40.527,0.000
1712217081.925,-44.434,-31.250,-41.016,-31.250,0.000
1712217081.929,-35.156,-28.320,-40.039,-40.039,0.000
1712217081.933,-27.344,-27.832,-30.762,-52.246,0.000
1712217081.937,-37.109,-35.156,-28.809,-23.926,0.000
1712217081.941,-37.598,-33.691,-31.250,-25.391,0.000
1712217081.945,-32.715,-36.133,-28.809,-32.715,0.000
1712217081.949,-22.461,-25.879,-33.691,-28.320,0.000
1712217081.953,-2.441,-29.297,-31.250,-23.438,0.000
1712217081.957,-12.207,-32.715,-28.320,-38.574,0.000
1712217081.961,-42.969,-30.273,-29.785,-42.969,0.000
1712217081.964,-53.711,-40.527,-26.855,-33.203,0.000
1712217081.968,-45.898,-34.668,-29.785,-32.227,0.000
1712217081.972,-40.527,-29.785,-32.715,-33.203,0.000
1712217081.976,-34.668,-34.668,-27.344,-25.879,0.000
1712217081.980,-31.250,-30.273,-23.926,-33.691,0.000
1712217081.984,-37.109,-31.250,-24.414,-38.086,0.000
1712217081.988,-45.410,-38.086,-31.250,-34.180,0.000
1712217081.992,-69.336,-33.203,-34.180,-39.062,0.000
1712217081.996,-72.266,-32.715,-31.738,-41.016,0.000
1712217082.000,-38.574,-37.598,-31.250,-33.691,0.000
1712217082.004,-31.738,-34.668,-33.691,-41.016,0.000
1712217082.008,-28.320,-36.133,-35.156,-51.270,0.000
1712217082.011,-26.367,-40.039,-35.645,-63.477,0.000
1712217082.015,-4.395,-30.762,-34.668,-55.664,0.000
1712217082.019,11.230,-22.949,-32.227,-33.203,0.000
1712217082.023,-27.832,-25.391,-28.320,-46.387,0.000
1712217082.027,-26.367,-18.066,-28.809,-59.570,0.000
1712217082.031,-18.066,-21.484,-29.785,-45.898,0.000
1712217082.035,-29.297,-22.461,-25.879,-28.320,0.000
1712217082.039,-47.852,-13.184,-22.949,-25.879,0.000
1712217082.043,-79.590,-21.484,-16.113,-24.414,0.000
1712217082.047,-75.195,-29.785,-21.484,-23.926,0.000
1712217082.051,-63.965,-30.273,-23.926,-36.133,0.000
1712217082.055,-57.617,-27.344,-21.973,-39.551,0.000
1712217082.058,-70.801,-26.855,-23.438,-48.340,0.000
1712217082.062,-88.867,-34.180,-23.438,-51.758,0.000
1712217082.066,-75.684,-26.855,-14.160,-57.617,0.000
1712217082.070,-77.637,-25.879,-3.906,-80.566,0.000
1712217082.074,-87.402,-25.391,-12.207,-96.191,0.000
1712217082.078,-87.891,-25.391,0.488,-94.238,0.000
1712217082.082,-88.867,-18.555,26.855,-81.543,0.000
1712217082.086,-101.074,-4.883,25.391,-102.051,0.000
1712217082.090,-121.582,-13.184,21.973,-130.859,0.000
1712217082.094,-140.137,-9.766,35.156,-130.371,0.000
1712217082.098,-145.996,-4.883,46.387,-134.277,0.000
1712217082.101,-175.781,-12.695,44.922,-173.340,0.000
1712217082.105,-198.242,-10.742,49.316,-196.289,0.000
1712217082.109,-194.824,5.371,51.758,-202.148,0.000
1712217082.113,-205.078,6.836,55.664,-229.492,0.000
1712217082.117,-202.148,1.953,62.988,-237.305,0.000
1712217082.121,-180.176,3.418,62.012,-237.305,0.000
1712217082.125,-143.555,16.602,56.641,-244.141,0.000
1712217082.129,-174.316,21.484,53.711,-235.840,0.000
1712217082.133,-270.508,13.184,52.734,-231.934,0.000
1712217082.137,-264.648,6.348,51.758,-212.891,0.000
1712217082.141,-218.262,6.836,42.480,-199.707,0.000
1712217082.144,-194.336,20.996,27.344,-202.148,0.000
1712217082.148,-176.758,16.113,17.090,-200.195,0.000
1712217082.152,-148.926,11.719,8.789,-175.781,0.000
1712217082.156,-132.324,4.883,0.000,-153.809,0.000
1712217082.160,-137.695,-3.906,-9.766,-132.324,0.000
1712217082.164,-119.629,0.488,-28.320,-105.469,0.000
1712217082.168,-79.590,-6.836,-41.016,-86.426,0.000
1712217082.172,-72.266,-16.602,-45.898,-70.801,0.000
1712217082.176,-76.660,-22.461,-54.199,-67.871,0.000
1712217082.180,-39.551,-24.414,-60.059,-56.641,0.000
1712217082.184,-18.066,-24.902,-63.477,-34.668,0.000
1712217082.187,-13.184,-37.598,-61.523,-19.531,0.000
1712217082.191,-16.113,-32.715,-64.453,-23.438,0.000
1712217082.195,2.441,-33.203,-66.406,-8.789,0.000
1712217082.199,37.598,-47.363,-62.500,20.020,0.000
1712217082.203,27.344,-51.270,-63.965,20.508,0.000
1712217082.207,33.691,-53.223,-65.918,15.625,0.000
1712217082.211,70.312,-51.758,-70.801,23.438,0.000
1712217082.214,75.195,-53.223,-75.195,30.762,0.000
1712217082.219,53.711,-60.547,-73.730,45.898,0.000
1712217082.223,21.973,-62.500,-78.125,45.410,0.000
1712217082.227,0.488,-66.895,-79.590,40.527,0.000
1712217082.230,20.020,-65.430,-78.125,46.387,0.000
1712217082.234,35.156,-62.988,-77.148,55.664,0.000
1712217082.238,31.738,-64.941,-75.195,54.688,0.000
1712217082.242,20.020,-61.035,-79.590,49.805,0.000
1712217082.246,14.160,-57.617,-77.637,55.176,0.000
1712217082.250,24.902,-50.781,-75.195,40.039,0.000
1712217082.254,41.504,-54.199,-70.312,38.574,0.000
1712217082.257,44.922,-55.176,-65.430,48.340,0.000
1712217082.261,40.039,-42.969,-64.453,41.016,0.000
1712217082.266,41.992,-41.504,-62.988,44.434,0.000
1712217082.270,28.320,-40.527,-67.871,45.898,0.000
1712217082.274,28.320,-41.992,-68.848,48.340,0.000
1712217082.277,33.203,-41.504,-64.453,51.758,0.000
1712217082.281,50.781,-40.527,-60.059,39.551,0.000
1712217082.285,43.457,-39.551,-66.895,22.949,0.000
1712217082.289,6.348,-44.922,-68.359,16.113,0.000
1712217082.293,4.395,-48.828,-67.383,13.672,0.000
1712217082.297,14.648,-43.945,-71.289,15.137,0.000
1712217082.301,30.762,-38.574,-71.777,25.879,0.000
1712217082.304,29.297,-34.180,-73.242,23.438,0.000
1712217082.308,38.086,-25.879,-78.125,8.301,0.000
1712217082.313,48.340,-28.809,-73.730,14.648,0.000
1712217082.317,61.523,-29.785,-65.430,12.207,0.000
1712217082.321,61.035,-25.879,-61.035,10.742,0.000
1712217082.324,0.488,-39.062,-61.035,17.090,0.000
1712217082.328,-14.648,-43.945,-58.594,18.066,0.000
1712217082.332,-15.625,-30.762,-61.035,19.531,0.000
1712217082.336,-16.602,-37.598,-62.988,21.484,0.000
1712217082.340,-4.883,-48.828,-57.617,21.484,0.000
1712217082.344,0.977,-46.875,-52.246,14.160,0.000
1712217082.348,-15.625,-46.875,-46.875,20.996,0.000
1712217082.351,-11.230,-32.227,-47.363,17.578,0.000
1712217082.355,11.719,-30.273,-43.457,5.371,0.000
1712217082.360,0.488,-38.086,-36.133,10.254,0.000
1712217082.364,5.371,-41.504,-41.992,9.766,0.000
1712217082.368,11.230,-43.457,-50.781,8.789,0.000
1712217082.371,4.883,-43.457,-47.363,5.859,0.000
1712217082.375,7.812,-40.527,-43.945,3.906,0.000
1712217082.379,1.953,-36.621,-49.316,-1.953,0.000
1712217082.383,-16.602,-46.387,-43.945,-12.695,0.000
1712217082.387,-4.883,-52.246,-43.457,-17.090,0.000
1712217082.391,-1.953,-44.922,-47.852,-4.395,0.000
1712217082.395,-18.555,-43.457,-44.922,6.836,0.000
1712217082.398,-3.906,-47.852,-40.527,-11.719,0.000
1712217082.402,10.254,-41.992,-42.969,-24.414,0.000
1712217082.407,-12.695,-40.039,-40.527,-27.344,0.000
1712217082.411,-4.395,-42.480,-35.645,-10.254,0.000
1712217082.415,8.789,-36.133,-40.527,-17.578,0.000
1712217082.418,32.715,-27.832,-43.457,-38.086,0.000
1712217082.422,66.895,-24.414,-39.062,-30.273,0.000
1712217082.426,1.465,-32.227,-34.180,-35.156,0.000
1712217082.430,-70.312,-37.109,-35.156,-34.668,0.000
1712217082.434,-60.059,-44.922,-35.645,-15.137,0.000
1712217082.438,-41.992,-39.551,-37.109,-14.648,0.000
1712217082.442,-43.945,-38.574,-35.645,-15.625,0.000
1712217082.445,-53.223,-49.805,-35.645,-29.297,0.000
1712217082.449,-39.551,-40.527,-39.062,-44.922,0.000
1712217082.454,-37.598,-37.598,-39.551,-42.969,0.000
1712217082.458,-28.809,-42.480,-36.621,-42.969,0.000
1712217082.461,-16.602,-42.969,-35.645,-37.598,0.000
1712217082.465,-20.996,-44.922,-40.527,-33.203,0.000
1712217082.469,-29.785,-39.551,-42.969,-35.156,0.000
1712217082.473,-40.039,-43.457,-39.551,-33.691,0.000
1712217082.477,-29.785,-47.852,-36.621,-33.203,0.000
1712217082.481,-16.113,-42.969,-33.691,-27.832,0.000
1712217082.485,-14.648,-40.039,-31.738,-25.879,0.000
1712217082.488,-23.438,-40.527,-30.273,-37.109,0.000
1712217082.492,-41.504,-40.527,-29.297,-34.668,0.000
1712217082.496,-36.133,-37.109,-31.250,-27.832,0.000
1712217082.501,-41.504,-48.828,-34.180,-44.922,0.000
1712217082.504,-52.734,-56.152,-36.133,-59.082,0.000
1712217082.508,-44.434,-48.340,-39.062,-58.594,0.000
1712217082.512,-55.664,-50.781,-34.668,-49.805,0.000
1712217082.516,-36.621,-44.922,-34.180,-42.480,0.000
1712217082.520,-27.832,-51.270,-28.320,-47.363,0.000
1712217082.524,-41.016,-48.340,-22.461,-44.434,0.000
1712217082.528,-33.203,-35.645,-35.156,-40.039,0.000
1712217082.531,-23.438,-43.457,-39.062,-45.410,0.000
1712217082.535,25.391,-41.504,-33.203,-56.152,0.000
1712217082.539,14.160,-41.016,-32.227,-47.363,0.000
1712217082.543,-53.223,-44.434,-31.250,-36.621,0.000
1712217082.547,-73.242,-39.062,-20.996,-29.785,0.000
1712217082.551,-65.430,-35.645,-11.230,-26.855,0.000
1712217082.555,-41.016,-37.109,-13.184,-23.926,0.000
1712217082.559,-14.160,-33.691,-18.555,-18.555,0.000
1712217082.563,-24.414,-40.039,-25.879,-16.113,0.000
1712217082.567,-53.223,-48.340,-25.879,-27.344,0.000
1712217082.571,-63.477,-48.340,-20.996,-45.410,0.000
1712217082.574,-50.293,-37.109,-25.391,-42.480,0.000
1712217082.578,-45.898,-27.832,-22.461,-45.410,0.000
1712217082.582,-57.129,-37.109,-17.578,-61.035,0.000
1712217082.586,-62.012,-47.363,-16.602,-62.012,0.000
1712217082.590,-57.617,-43.945,-13.184,-61.523,0.000
1712217082.594,-58.594,-44.922,-4.883,-60.059,0.000
1712217082.598,-61.523,-48.340,-8.301,-58.594,0.000
1712217082.602,-65.918,-49.805,-14.648,-59.570,0.000
1712217082.606,-58.105,-42.969,-9.766,-55.664,0.000
1712217082.610,-39.062,-35.645,-15.625,-53.711,0.000
1712217082.614,-30.273,-35.156,-17.578,-61.035,0.000
1712217082.617,-27.832,-38.574,-10.254,-53.711,0.000
1712217082.621,-38.574,-38.574,-11.719,-39.551,0.000
1712217082.625,-44.434,-24.414,-16.113,-46.387,0.000
1712217082.629,-64.453,-31.738,-13.672,-41.504,0.000
1712217082.633,-72.754,-41.016,-10.254,-39.551,0.000
1712217082.637,-51.758,-36.621,-11.230,-54.688,0.000
1712217082.641,-43.945,-40.527,-14.160,-57.129,0.000
1712217082.645,-62.012,-49.316,-22.461,-53.223,0.000
1712217082.649,-74.219,-47.852,-29.785,-52.734,0.000
1712217082.653,-70.312,-40.527,-25.391,-49.316,0.000
1712217082.656,-59.082,-46.387,-21.484,-54.199,0.000
1712217082.660,-32.227,-46.875,-22.461,-51.270,0.000
1712217082.664,-25.879,-45.898,-21.484,-49.316,0.000
1712217082.668,-54.199,-46.875,-19.043,-57.129,0.000
1712217082.672,-60.059,-35.645,-21.484,-52.734,0.000
1712217082.676,-52.246,-32.227,-26.367,-41.992,0.000
1712217082.680,-35.156,-36.133,-22.949,-37.598,0.000
1712217082.683,-39.551,-30.273,-23.438,-42.480,0.000
1712217082.688,-38.574,-28.320,-25.879,-44.434,0.000
1712217082.692,-33.203,-31.738,-25.391,-39.062,0.000
1712217082.696,-26.855,-33.691,-23.438,-34.180,0.000
1712217082.700,-13.672,-34.180,-15.625,-31.250,0.000
1712217082.703,-2.441,-35.156,-12.695,-29.785,0.000
1712217082.707,-15.625,-34.180,-21.484,-36.621,0.000
1712217082.711,-51.758,-35.645,-18.066,-28.809,0.000
1712217082.715,-25.879,-30.762,-16.602,-30.273,0.000
1712217082.719,-3.906,-28.809,-22.461,-39.062,0.000
1712217082.723,-30.762,-27.832,-21.484,-22.461,0.000
1712217082.727,-68.848,-32.227,-20.508,-32.227,0.000
1712217082.730,-81.055,-43.945,-20.508,-44.922,0.000
1712217082.735,-65.430,-35.156,-23.926,-39.551,0.000
1712217082.739,-51.758,-30.762,-21.973,-38.086,0.000
1712217082.743,-58.105,-31.738,-26.855,-44.922,0.000
1712217082.747,-52.246,-40.527,-32.227,-51.270,0.000
1712217082.750,-44.434,-58.594,-28.320,-34.668,0.000
1712217082.754,-42.969,-52.734,-35.156,-35.156,0.000
1712217082.758,-30.273,-48.828,-32.227,-41.992,0.000
1712217082.762,-43.457,-48.828,-28.809,-41.992,0.000
1712217082.766,-42.480,-41.016,-33.203,-42.480,0.000
1712217082.770,-31.738,-43.457,-36.133,-38.574,0.000
1712217082.774,-33.691,-46.387,-35.156,-33.691,0.000
1712217082.777,-56.152,-40.039,-34.668,-28.320,0.000
1712217082.782,-56.641,-39.062,-34.180,-30.273,0.000
1712217082.786,-30.762,-27.832,-30.762,-31.738,0.000
1712217082.790,-30.273,-24.902,-26.367,-33.203,0.000
1712217082.793,-36.133,-19.531,-27.344,-42.969,0.000
1712217082.797,-30.762,-33.203,-22.461,-25.879,0.000
1712217082.801,-6.836,-50.781,-12.207,8.301,0.000
1712217082.805,-1.465,-37.109,-13.184,18.066,0.000
1712217082.809,-35.645,-20.020,-25.391,-24.902,0.000
1712217082.813,-45.898,-20.508,-32.715,-50.293,0.000
1712217082.817,-24.414,-30.273,-28.809,-38.086,0.000
1712217082.821,-22.461,-34.180,-29.785,-41.992,0.000
1712217082.824,-34.668,-29.785,-37.109,-50.781,0.000
1712217082.829,-40.527,-21.484,-39.062,-48.828,0.000
1712217082.833,-51.270,-31.250,-33.203,-41.504,0.000
1712217082.837,-38.574,-40.527,-30.762,-32.715,0.000
1712217082.840,-10.254,-30.273,-36.133,-41.992,0.000
1712217082.844,-20.996,-21.973,-35.645,-43.945,0.000
1712217082.848,-40.527,-21.484,-30.762,-28.320,0.000
1712217082.852,-39.062,-31.738,-26.855,-26.855,0.000
1712217082.856,-11.719,-31.250,-23.438,-18.555,0.000
1712217082.860,-3.418,-27.344,-24.902,-11.230,0.000
1712217082.864,-20.020,-29.785,-26.855,-15.625,0.000
1712217082.867,-24.902,-33.691,-29.785,-13.672,0.000
1712217082.871,-47.363,-36.621,-33.203,-16.113,0.000
1712217082.876,-36.133,-37.109,-33.691,-22.461,0.000
1712217082.880,-22.461,-41.992,-35.156,-23.926,0.000
1712217082.883,-22.461,-43.457,-32.227,-19.531,0.000
1712217082.887,-19.043,-28.809,-30.762,-27.832,0.000
1712217082.891,-35.156,-29.297,-33.203,-25.879,0.000
1712217082.895,-41.504,-38.086,-35.645,-25.879,0.000
1712217082.899,-31.250,-39.551,-35.645,-38.086,0.000
1712217082.903,-33.203,-43.457,-34.180,-41.016,0.000
1712217082.907,-30.273,-42.969,-37.598,-35.156,0.000
1712217082.910,-29.297,-45.898,-39.062,-32.227,0.000
1712217082.914,-41.504,-53.223,-35.645,-38.086,0.000
1712217082.918,-27.832,-43.457,-37.109,-34.180,0.000
1712217082.922,-26.855,-36.133,-36.133,-29.785,0.000
1712217082.926,-60.059,-38.086,-35.645,-23.438,0.000
1712217082.930,-79.590,-44.434,-33.203,-17.090,0.000
1712217082.934,-58.105,-34.180,-23.926,-31.738,0.000
1712217082.938,-31.250,-38.086,-20.508,-31.738,0.000
1712217082.942,-19.043,-46.387,-26.367,-26.855,0.000
1712217082.946,-37.598,-39.551,-29.297,-23.438,0.000
1712217082.950,-37.109,-38.086,-25.879,-12.695,0.000
1712217082.953,-44.922,-45.410,-26.855,-28.809,0.000
1712217082.957,-48.340,-43.945,-31.738,-37.109,0.000
1712217082.961,-28.320,-34.668,-27.832,-30.762,0.000
1712217082.965,-40.039,-31.738,-25.879,-31.250,0.000
1712217082.969,-47.852,-33.203,-29.297,-37.109,0.000
1712217082.973,-35.156,-36.133,-22.461,-35.645,0.000
1712217082.977,-42.480,-29.297,-26.855,-39.062,0.000
1712217082.981,-51.758,-34.668,-36.621,-39.551,0.000
1712217082.985,-61.523,-47.852,-33.691,-33.691,0.000
1712217082.989,-49.805,-38.086,-31.250,-44.922,0.000
1712217082.992,-39.062,-30.762,-30.762,-51.270,0.000
1712217082.996,-45.410,-32.715,-30.762,-47.363,0.000
1712217083.000,-36.621,-20.020,-30.273,-51.270,0.000
1712217083.004,-35.156,-17.578,-35.645,-57.617,0.000
1712217083.008,-34.180,-27.832,-35.645,-50.781,0.000
1712217083.012,-34.180,-37.598,-30.273,-28.809,0.000
1712217083.016,-27.832,-34.180,-28.809,-27.344,0.000
1712217083.020,-16.113,-34.668,-30.762,-34.180,0.000
1712217083.024,-49.316,-41.504,-31.738,-30.273,0.000
1712217083.028,-63.965,-29.297,-31.738,-34.180,0.000
1712217083.031,-52.734,-29.785,-33.203,-42.480,0.000
1712217083.035,-46.875,-41.992,-33.691,-36.133,0.000
1712217083.039,-30.762,-34.180,-39.062,-34.180,0.000
1712217083.043,-30.273,-30.273,-37.109,-49.805,0.000
1712217083.047,-36.621,-28.320,-30.273,-47.852,0.000
1712217083.051,-40.527,-29.785,-32.227,-36.621,0.000
1712217083.055,-32.227,-35.156,-37.598,-40.527,0.000
1712217083.059,-20.508,-30.273,-37.109,-46.875,0.000
1712217083.063,-39.551,-29.785,-36.621,-49.805,0.000
1712217083.067,-41.504,-35.156,-35.156,-48.828,0.000
1712217083.071,-37.598,-37.109,-37.109,-44.434,0.000
1712217083.075,-34.668,-35.645,-40.039,-50.781,0.000
1712217083.078,-26.855,-36.133,-33.203,-45.410,0.000
1712217083.082,-32.715,-35.645,-29.297,-37.598,0.000
1712217083.086,-27.344,-33.203,-27.832,-37.109,0.000
1712217083.090,-5.859,-36.133,-21.973,-34.668,0.000
1712217083.094,-27.832,-38.574,-17.578,-33.203,0.000
1712217083.098,-20.020,-35.156,-24.902,-38.086,0.000
1712217083.102,-23.926,-33.203,-28.809,-40.527,0.000
1712217083.106,-40.527,-32.715,-27.344,-31.250,0.000
1712217083.110,-30.273,-29.297,-30.273,-34.668,0.000
1712217083.114,-35.645,-24.414,-29.785,-31.250,0.000
1712217083.118,-22.949,-22.461,-27.832,-32.715,0.000
1712217083.122,-22.949,-37.109,-26.367,-41.016,0.000
1712217083.125,-39.062,-26.855,-32.715,-41.504,0.000
1712217083.129,-48.828,-24.902,-33.691,-37.598,0.000
1712217083.133,-41.504,-44.434,-37.109,-34.668,0.000
1712217083.137,-24.414,-43.457,-38.574,-29.297,0.000
1712217083.141,-17.578,-36.621,-32.227,-28.320,0.000
1712217083.145,-36.133,-37.598,-29.297,-30.762,0.000
1712217083.149,-48.340,-37.598,-29.297,-34.180,0.000
1712217083.153,-37.598,-36.621,-27.344,-34.180,0.000
1712217083.157,-36.621,-38.086,-29.297,-30.762,0.000
1712217083.161,-30.762,-30.273,-32.715,-34.668,0.000
1712217083.165,-55.664,-42.480,-29.785,-36.133,0.000
1712217083.169,-55.176,-47.852,-33.203,-35.156,0.000
1712217083.172,-36.621,-29.297,-37.109,-37.109,0.000
1712217083.176,-37.109,-23.438,-39.551,-36.133,0.000
1712217083.180,-40.527,-19.531,-44.922,-38.086,0.000
1712217083.184,-45.898,-27.344,-37.109,-39.062,0.000
1712217083.188,-58.105,-37.598,-38.086,-41.992,0.000
1712217083.192,-57.617,-30.762,-39.062,-38.574,0.000
1712217083.196,-22.461,-22.949,-34.668,-34.668,0.000
1712217083.199,-13.672,-29.297,-32.715,-31.250,0.000
1712217083.204,-19.043,-30.273,-29.785,-40.527,0.000
1712217083.208,-36.133,-33.203,-35.645,-47.363,0.000
1712217083.212,-43.945,-35.156,-34.668,-37.598,0.000
1712217083.215,-41.016,-32.227,-35.645,-38.574,0.000
1712217083.219,-36.133,-30.273,-40.039,-41.504,0.000
1712217083.223,-33.203,-32.715,-32.227,-31.250,0.000
1712217083.227,-39.062,-30.273,-32.227,-31.738,0.000
1712217083.231,-39.062,-33.691,-32.715,-25.879,0.000
1712217083.235,-36.133,-29.785,-31.738,-21.973,0.000
1712217083.239,-24.902,-22.949,-34.180,-24.902,0.000
1712217083.242,-36.133,-33.691,-32.227,-20.020,0.000
1712217083.246,-46.875,-34.668,-32.227,-44.922,0.000
1712217083.251,-36.621,-30.273,-37.598,-56.641,0.000
1712217083.255,-31.738,-30.762,-34.668,-40.527,0.000
1712217083.258,-30.762,-33.203,-30.762,-37.598,0.000
1712217083.262,-19.043,-24.902,-30.762,-47.363,0.000
1712217083.266,-20.508,-17.578,-23.926,-46.387,0.000
1712217083.270,-53.223,-28.809,-23.438,-36.133,0.000
1712217083.274,-49.316,-29.297,-29.785,-41.016,0.000
1712217083.278,-30.273,-23.926,-32.715,-35.156,0.000
1712217083.282,-29.785,-30.762,-29.297,-30.762,0.000
1712217083.285,-35.645,-42.480,-25.879,-33.203,0.000
1712217083.289,-51.270,-36.133,-28.320,-35.156,0.000
1712217083.293,-46.875,-28.809,-31.738,-37.109,0.000
1712217083.298,-28.809,-32.227,-35.156,-45.898,0.000
1712217083.301,-15.625,-30.762,-34.180,-41.504,0.000
1712217083.305,-19.531,-36.133,-36.621,-42.969,0.000
1712217083.309,-41.016,-42.480,-42.480,-45.898,0.000
1712217083.313,-61.523,-39.551,-42.969,-44.922,0.000
1712217083.317,-55.664,-31.250,-46.875,-53.711,0.000
1712217083.321,-44.434,-36.621,-45.410,-40.039,0.000
1712217083.325,-40.039,-32.715,-41.504,-40.527,0.000
1712217083.328,-30.273,-29.785,-43.945,-56.641,0.000
1712217083.332,-48.828,-24.902,-49.316,-60.059,0.000
1712217083.336,-63.477,-25.391,-47.852,-46.875,0.000
1712217083.340,-49.805,-37.598,-39.551,-39.551,0.000
1712217083.344,-44.922,-27.832,-42.480,-44.922,0.000
1712217083.348,-41.016,-23.926,-51.270,-41.504,0.000
1712217083.352,-55.176,-31.250,-55.664,-35.645,0.000
1712217083.356,-41.016,-21.973,-52.734,-38.086,0.000
1712217083.360,-48.340,-25.879,-47.363,-52.734,0.000
1712217083.364,-52.246,-39.551,-37.598,-45.898,0.000
1712217083.368,-34.180,-28.320,-38.086,-32.715,0.000
1712217083.371,-50.781,-28.320,-40.527,-44.922,0.000
1712217083.375,-41.016,-41.504,-35.645,-44.434,0.000
1712217083.379,-49.805,-37.598,-38.574,-37.109,0.000
1712217083.383,-61.035,-28.809,-41.016,-41.504,0.000
1712217083.387,-54.199,-35.156,-39.551,-53.223,0.000
1712217083.391,-55.176,-41.992,-36.133,-49.316,0.000
1712217083.395,-41.016,-41.016,-37.598,-37.598,0.000
1712217083.399,-43.945,-44.922,-38.086,-40.527,0.000
1712217083.403,-41.992,-40.527,-35.156,-40.039,0.000
1712217083.407,-49.316,-37.598,-32.715,-41.504,0.000
1712217083.410,-55.176,-45.410,-35.156,-42.480,0.000
1712217083.414,-37.598,-47.852,-40.527,-34.668,0.000
1712217083.418,-31.738,-39.551,-38.574,-26.855,0.000
1712217083.422,-45.410,-44.922,-35.645,-38.574,0.000
1712217083.426,-61.035,-47.852,-38.086,-41.504,0.000
1712217083.430,-59.570,-51.270,-41.016,-28.809,0.000
1712217083.434,-58.594,-46.387,-39.062,-34.668,0.000
1712217083.438,-46.875,-44.922,-32.715,-33.691,0.000
1712217083.442,-41.992,-39.062,-32.227,-28.320,0.000
1712217083.446,-37.598,-32.715,-32.715,-31.738,0.000
1712217083.450,-38.574,-47.363,-33.691,-37.109,0.000
1712217083.454,-36.133,-44.922,-33.203,-35.645,0.000
1712217083.457,-32.227,-39.551,-30.762,-30.273,0.000
1712217083.461,-39.062,-41.992,-30.273,-41.016,0.000
1712217083.465,-32.227,-38.086,-35.645,-48.828,0.000
1712217083.469,-31.250,-47.852,-36.621,-39.551,0.000
1712217083.473,-46.387,-50.781,-36.621,-42.480,0.000
1712217083.477,-32.715,-36.133,-36.133,-47.363,0.000
1712217083.481,-25.391,-28.809,-37.598,-45.410,0.000
1712217083.485,-28.809,-30.762,-38.574,-46.875,0.000
1712217083.489,-27.832,-30.273,-35.645,-43.945,0.000
1712217083.493,-32.715,-31.250,-35.645,-39.551,0.000
1712217083.497,-19.043,-33.691,-28.809,-36.133,0.000
1712217083.501,-17.090,-26.855,-26.855,-41.016,0.000
1712217083.504,-39.551,-30.762,-31.250,-39.551,0.000
1712217083.508,-50.293,-30.273,-35.645,-36.133,0.000
1712217083.512,-53.711,-39.062,-31.738,-25.391,0.000
1712217083.516,-39.551,-44.434,-25.391,-20.996,0.000
1712217083.520,-30.273,-40.527,-26.367,-33.203,0.000
1712217083.524,-40.527,-41.992,-27.832,-44.434,0.000
1712217083.528,-35.156,-41.016,-21.484,-35.156,0.000
1712217083.532,-37.598,-38.086,-19.043,-33.691,0.000
1712217083.536,-25.391,-37.109,-19.043,-40.527,0.000
1712217083.540,-10.254,-39.062,-13.672,-34.180,0.000
1712217083.544,-31.738,-32.715,-11.719,-25.391,0.000
1712217083.547,-33.203,-28.809,-18.555,-26.855,0.000
1712217083.551,-33.203,-35.645,-23.926,-38.574,0.000
1712217083.555,-24.902,-34.668,-19.531,-32.227,0.000
1712217083.559,-17.090,-35.645,-22.461,-26.855,0.000
1712217083.563,-22.461,-50.293,-25.391,-27.832,0.000
1712217083.567,-22.949,-50.781,-25.391,-38.086,0.000
1712217083.571,-46.387,-34.668,-28.809,-54.199,0.000
1712217083.575,-51.270,-34.668,-26.855,-45.410,0.000
1712217083.579,-36.133,-41.992,-24.414,-36.133,0.000
1712217083.583,-37.109,-41.992,-25.879,-43.457,0.000
1712217083.587,-48.340,-30.273,-34.668,-50.293,0.000
1712217083.591,-50.781,-32.715,-35.645,-47.363,0.000
1712217083.594,-39.551,-43.945,-34.180,-38.086,0.000
1712217083.598,-31.250,-36.621,-40.039,-46.387,0.000
1712217083.602,-38.086,-46.875,-36.133,-51.758,0.000
1712217083.606,-31.250,-41.016,-29.785,-36.621,0.000
1712217083.610,-29.785,-28.809,-30.762,-34.668,0.000
1712217083.614,-41.992,-38.086,-33.203,-37.598,0.000
1712217083.618,-26.367,-30.273,-35.156,-40.039,0.000
1712217083.621,-34.180,-33.203,-35.645,-41.992,0.000
1712217083.626,-34.668,-41.504,-35.645,-44.922,0.000
1712217083.630,-31.738,-33.691,-43.457,-53.711,0.000
1712217083.633,-30.762,-32.227,-40.039,-38.574,0.000
1712217083.637,-32.227,-34.180,-30.273,-32.227,0.000
1712217083.641,-49.316,-41.992,-30.762,-33.203,0.000
1712217083.645,-41.992,-38.086,-33.203,-29.297,0.000
1712217083.649,-33.203,-28.809,-38.574,-33.203,0.000
1712217083.653,-48.828,-33.203,-40.039,-28.320,0.000
1712217083.657,-60.547,-37.109,-39.062,-41.016,0.000
1712217083.661,-47.852,-36.133,-39.551,-52.246,0.000
1712217083.664,-42.480,-45.410,-43.457,-49.805,0.000
1712217083.668,-56.152,-52.246,-44.922,-48.340,0.000
1712217083.673,-60.059,-40.527,-44.434,-43.457,0.000
1712217083.676,-56.641,-38.086,-42.969,-37.109,0.000
1712217083.680,-56.641,-42.480,-42.969,-38.574,0.000
1712217083.684,-57.129,-40.039,-43.945,-47.852,0.000
1712217083.688,-40.039,-28.809,-42.480,-51.758,0.000
1712217083.692,-30.762,-23.926,-40.527,-48.828,0.000
1712217083.696,-40.527,-26.855,-34.668,-40.039,0.000
1712217083.700,-42.969,-27.832,-37.109,-54.199,0.000
1712217083.704,-44.922,-22.949,-40.039,-67.871,0.000
1712217083.707,-41.016,-24.902,-36.133,-49.316,0.000
1712217083.711,-39.062,-28.320,-37.109,-49.805,0.000
1712217083.715,-42.969,-30.273,-36.621,-56.152,0.000
1712217083.719,-52.734,-36.133,-33.203,-51.270,0.000
1712217083.723,-51.758,-40.039,-30.762,-44.434,0.000
1712217083.727,-52.734,-39.062,-32.227,-41.504,0.000
1712217083.731,-51.758,-37.598,-37.109,-48.340,0.000
1712217083.735,-34.180,-36.621,-37.598,-49.805,0.000
1712217083.739,-37.109,-38.574,-33.691,-45.410,0.000
1712217083.743,-51.270,-40.039,-33.691,-41.992,0.000
1712217083.746,-59.570,-39.551,-39.062,-45.898,0.000
1712217083.750,-64.453,-39.551,-40.039,-53.711,0.000
1712217083.754,-48.828,-34.180,-39.551,-50.781,0.000
1712217083.758,-35.645,-34.668,-36.621,-49.805,0.000
1712217083.762,-14.160,-22.949,-32.227,-52.246,0.000
1712217083.766,-19.043,-23.438,-31.250,-44.434,0.000
1712217083.770,-34.668,-30.762,-31.738,-38.086,0.000
1712217083.774,-31.738,-20.996,-27.344,-30.762,0.000
1712217083.778,-23.438,-23.926,-24.414,-23.926,0.000
1712217083.782,-19.043,-22.461,-30.762,-33.691,0.000
1712217083.785,-40.527,-24.414,-31.738,-35.645,0.000
1712217083.789,-44.922,-30.762,-29.297,-28.320,0.000
1712217083.793,-35.645,-27.832,-27.832,-25.879,0.000
1712217083.797,-37.598,-34.180,-24.414,-27.344,0.000
1712217083.801,-54.199,-41.504,-23.438,-32.227,0.000
1712217083.805,-50.781,-39.062,-26.855,-36.133,0.000
1712217083.809,-39.062,-36.621,-27.344,-35.156,0.000
1712217083.813,-46.387,-34.668,-32.715,-44.434,0.000
1712217083.817,-43.945,-35.156,-33.203,-48.340,0.000
1712217083.821,-23.438,-45.410,-29.297,-32.715,0.000
1712217083.825,-29.297,-46.387,-35.156,-42.480,0.000
1712217083.829,-49.805,-49.805,-35.156,-45.898,0.000
1712217083.833,-43.945,-52.734,-37.109,-38.086,0.000
1712217083.836,-43.457,-51.270,-35.156,-39.551,0.000
1712217083.840,-41.016,-50.293,-37.598,-37.598,0.000
1712217083.844,-37.598,-43.945,-43.457,-32.227,0.000
1712217083.848,-49.805,-43.457,-40.039,-29.297,0.000
1712217083.852,-52.246,-40.527,-40.527,-35.645,0.000
1712217083.856,-33.203,-38.574,-45.898,-45.410,0.000
1712217083.860,-38.574,-47.363,-44.434,-36.133,0.000
1712217083.864,-51.758,-38.086,-42.969,-35.156,0.000
1712217083.868,-35.156,-30.273,-43.945,-45.898,0.000
1712217083.872,-38.574,-40.527,-40.039,-39.062,0.000
1712217083.876,-46.875,-43.457,-43.457,-36.133,0.000
1712217083.879,-27.832,-46.387,-42.480,-36.621,0.000
1712217083.883,-39.551,-49.316,-40.527,-40.039,0.000
1712217083.887,-37.109,-37.598,-41.504,-48.340,0.000
1712217083.891,-43.457,-41.016,-38.574,-42.969,0.000
1712217083.895,-44.434,-51.758,-35.156,-36.133,0.000
1712217083.899,-18.066,-39.551,-34.668,-36.133,0.000
1712217083.903,-29.785,-37.598,-31.738,-24.414,0.000
1712217083.907,-39.062,-33.691,-29.785,-23.438,0.000
1712217083.911,-33.691,-41.016,-34.668,-38.086,0.000
1712217083.915,-42.480,-49.316,-32.227,-35.156,0.000
1712217083.919,-38.574,-43.945,-35.645,-28.320,0.000
1712217083.923,-25.879,-41.992,-37.109,-25.391,0.000
1712217083.926,-34.180,-49.805,-31.738,-24.414,0.000
1712217083.930,-23.926,-58.594,-26.855,-29.297,0.000
1712217083.934,-21.484,-47.852,-29.297,-30.762,0.000
1712217083.938,-25.879,-39.062,-39.062,-25.879,0.000
1712217083.942,-22.949,-40.527,-38.086,-23.438,0.000
1712217083.946,-23.926,-40.527,-36.133,-27.832,0.000
1712217083.950,-33.203,-41.992,-41.992,-31.738,0.000
1712217083.954,-38.574,-43.945,-46.387,-39.551,0.000
1712217083.958,-25.879,-36.621,-47.363,-43.457,0.000
1712217083.962,-28.809,-37.109,-39.551,-35.156,0.000
1712217083.966,-37.598,-35.156,-41.504,-31.738,0.000
1712217083.969,-20.996,-27.832,-41.016,-35.156,0.000
1712217083.973,-21.973,-41.504,-33.203,-33.203,0.000
1712217083.977,-23.438,-40.039,-34.180,-35.156,0.000
1712217083.981,-21.484,-34.180,-33.203,-24.414,0.000
1712217083.985,-16.113,-29.785,-37.598,-23.438,0.000
1712217083.989,-18.555,-32.227,-34.180,-32.227,0.000
1712217083.993,-46.875,-34.668,-31.250,-32.715,0.000
1712217083.997,-39.551,-30.762,-33.691,-31.738,0.000
1712217084.001,-31.738,-30.762,-31.738,-27.832,0.000
1712217084.005,-27.344,-31.250,-29.297,-32.715,0.000
1712217084.009,-36.621,-33.691,-30.273,-35.156,0.000
1712217084.012,-37.109,-34.668,-33.203,-34.668,0.000
1712217084.016,-26.855,-29.785,-36.133,-33.691,0.000
1712217084.020,-28.809,-30.273,-35.156,-36.621,0.000
1712217084.024,-49.805,-35.156,-33.691,-33.691,0.000
1712217084.028,-47.852,-28.809,-41.992,-27.832,0.000
1712217084.032,-21.973,-33.203,-45.410,-32.227,0.000
1712217084.036,-28.809,-44.922,-41.992,-38.086,0.000
1712217084.040,-22.461,-33.691,-43.945,-42.969,0.000
1712217084.043,-31.738,-23.438,-44.434,-54.688,0.000
1712217084.048,-36.133,-29.297,-41.016,-50.781,0.000
1712217084.052,-33.691,-30.273,-37.109,-51.270,0.000
1712217084.055,-38.086,-33.203,-38.086,-50.293,0.000
1712217084.059,-29.785,-35.645,-34.180,-35.645,0.000
1712217084.063,-28.809,-25.391,-37.109,-37.598,0.000
1712217084.067,-44.434,-24.414,-43.945,-46.875,0.000
1712217084.071,-50.781,-37.109,-40.527,-47.852,0.000
1712217084.075,-23.438,-28.809,-38.086,-43.457,0.000
1712217084.079,-16.113,-27.344,-29.297,-41.992,0.000
1712217084.082,-57.129,-36.133,-24.902,-40.039,0.000
1712217084.086,-60.547,-34.668,-28.809,-41.504,0.000
1712217084.090,-50.781,-30.762,-31.738,-50.293,0.000
1712217084.094,-54.199,-35.156,-31.738,-41.992,0.000
1712217084.098,-41.016,-34.180,-33.691,-38.574,0.000
1712217084.102,-42.969,-30.273,-34.180,-47.852,0.000
1712217084.106,-47.852,-35.645,-32.715,-40.527,0.000
1712217084.110,-59.570,-34.180,-29.297,-38.574,0.000
1712217084.114,-48.340,-35.156,-29.785,-40.527,0.000
1712217084.118,-41.016,-36.133,-34.668,-37.598,0.000
1712217084.122,-40.039,-38.574,-37.109,-36.621,0.000
1712217084.125,-42.969,-32.715,-41.016,-43.945,0.000
1712217084.129,-49.805,-32.227,-36.621,-42.480,0.000
1712217084.133,-45.410,-42.480,-30.762,-42.480,0.000
1712217084.137,-45.898,-36.133,-29.785,-42.969,0.000
1712217084.141,-38.086,-34.180,-28.809,-35.156,0.000
1712217084.145,-32.715,-39.551,-27.832,-29.785,0.000
1712217084.149,-20.508,-35.645,-27.832,-35.645,0.000
1712217084.153,-24.902,-31.250,-29.785,-40.527,0.000
1712217084.157,-49.805,-37.598,-29.785,-36.621,0.000
1712217084.161,-34.668,-44.922,-28.320,-30.273,0.000
1712217084.165,-22.461,-44.434,-26.367,-21.484,0.000
1712217084.169,-26.855,-39.062,-21.973,-24.414,0.000
1712217084.172,-22.949,-39.551,-26.367,-17.578,0.000
1712217084.176,-30.762,-37.598,-34.668,-17.578,0.000
1712217084.180,-41.992,-37.109,-35.156,-29.785,0.000
1712217084.184,-40.527,-43.457,-35.156,-23.926,0.000
1712217084.188,-37.598,-39.551,-35.645,-27.832,0.000
1712217084.192,-43.457,-38.086,-39.551,-36.621,0.000
1712217084.196,-25.879,-39.062,-39.062,-32.227,0.000
1712217084.200,-25.391,-39.551,-34.180,-25.879,0.000
1712217084.204,-43.457,-31.250,-37.598,-33.203,0.000
1712217084.208,-54.199,-39.062,-35.156,-38.086,0.000
1712217084.212,-46.875,-45.410,-30.762,-39.062,0.000
1712217084.216,-30.762,-37.598,-33.203,-38.574,0.000
1712217084.219,-37.109,-43.945,-35.645,-40.039,0.000
1712217084.223,-47.852,-45.410,-34.180,-36.133,0.000
1712217084.227,-30.762,-33.691,-30.273,-27.832,0.000
1712217084.231,-40.527,-36.621,-24.414,-38.574,0.000
1712217084.235,-52.734,-39.062,-25.391,-49.805,0.000
1712217084.239,-44.434,-34.180,-33.203,-48.340,0.000
1712217084.243,-46.387,-37.109,-32.227,-50.293,0.000
1712217084.247,-41.504,-41.504,-25.879,-39.551,0.000
1712217084.251,-41.992,-37.598,-25.391,-32.715,0.000
1712217084.255,-33.691,-37.109,-25.879,-41.016,0.000
1712217084.259,-26.855,-32.715,-22.949,-37.598,0.000
1712217084.263,-30.762,-30.273,-24.414,-37.598,0.000
1712217084.266,-46.387,-41.504,-30.762,-34.668,0.000
1712217084.270,-50.781,-46.387,-26.855,-24.902,0.000
1712217084.274,-41.016,-46.387,-18.555,-27.832,0.000
1712217084.278,-36.133,-47.852,-19.531,-29.785,0.000
1712217084.282,-21.484,-42.969,-20.508,-28.809,0.000
1712217084.286,-38.086,-49.316,-21.484,-27.832,0.000
1712217084.290,-46.875,-43.457,-24.902,-30.273,0.000
1712217084.294,-20.996,-41.016,-26.855,-36.133,0.000
1712217084.298,-21.973,-47.852,-22.461,-35.156,0.000
1712217084.302,-30.273,-44.434,-23.926,-29.297,0.000
1712217084.306,-39.551,-42.480,-30.762,-27.832,0.000
1712217084.309,-41.504,-30.762,-32.227,-30.762,0.000
1712217084.313,-45.898,-34.668,-35.645,-37.109,0.000
1712217084.317,-32.227,-41.016,-34.180,-25.879,0.000
1712217084.321,-19.531,-41.016,-26.367,-22.461,0.000
1712217084.325,-30.762,-31.250,-31.738,-42.969,0.000
1712217084.329,-26.367,-34.668,-30.273,-44.434,0.000
1712217084.333,-19.531,-40.039,-21.973,-38.574,0.000
1712217084.337,-30.273,-33.203,-26.367,-44.922,0.000
1712217084.341,-29.297,-33.691,-28.320,-40.527,0.000
1712217084.345,-39.551,-39.062,-26.855,-38.574,0.000
1712217084.349,-47.363,-33.691,-29.297,-42.480,0.000
1712217084.352,-41.992,-32.715,-30.762,-40.039,0.000
1712217084.356,-31.738,-41.992,-36.133,-34.180,0.000
1712217084.360,-26.367,-41.016,-42.480,-30.762,0.000
1712217084.364,-43.945,-43.457,-40.527,-41.992,0.000
1712217084.368,-30.762,-39.551,-37.109,-47.852,0.000
1712217084.372,-24.902,-31.738,-40.527,-39.551,0.000
1712217084.376,-40.039,-28.320,-39.062,-32.715,0.000
1712217084.380,-27.832,-25.879,-35.645,-38.086,0.000
1712217084.384,-39.551,-36.621,-35.156,-41.504,0.000
1712217084.388,-42.480,-34.668,-34.668,-41.016,0.000
1712217084.392,-38.086,-30.273,-36.621,-39.551,0.000
1712217084.395,-36.133,-39.551,-41.016,-43.457,0.000
1712217084.399,-32.715,-37.109,-45.898,-40.527,0.000
1712217084.403,-42.480,-28.809,-48.340,-34.180,0.000
1712217084.407,-35.645,-32.715,-39.551,-30.273,0.000
1712217084.411,-26.367,-29.297,-32.227,-27.344,0.000
1712217084.415,-43.945,-32.227,-41.016,-31.250,0.000
1712217084.419,-45.410,-38.574,-46.387,-44.922,0.000
1712217084.423,-36.621,-32.227,-45.410,-45.898,0.000
1712217084.427,-31.250,-33.203,-42.969,-29.785,0.000
1712217084.431,-17.090,-34.668,-34.180,-17.578,0.000
1712217084.435,-40.039,-19.531,-35.156,-42.480,0.000
1712217084.438,-43.945,-16.602,-35.645,-61.035,0.000
1712217084.442,-37.598,-21.973,-34.180,-68.359,0.000
1712217084.446,-58.105,-25.879,-38.086,-71.289,0.000
1712217084.450,-59.082,-35.156,-36.133,-55.664,0.000
1712217084.454,-56.152,-32.715,-37.109,-75.195,0.000
1712217084.458,-65.430,-26.367,-42.480,-86.914,0.000
1712217084.462,-64.941,-31.250,-39.062,-71.289,0.000
1712217084.466,-68.359,-37.109,-19.531,-59.570,0.000
1712217084.470,-67.383,-24.902,-16.113,-60.547,0.000
1712217084.474,-53.711,-29.297,-31.738,-65.430,0.000
1712217084.478,-48.340,-32.227,-43.457,-64.453,0.000
1712217084.481,-68.359,-31.250,-43.945,-69.336,0.000
1712217084.485,-62.988,-37.109,-33.203,-60.059,0.000
1712217084.489,-41.504,-16.113,-31.250,-47.363,0.000
1712217084.493,-52.734,-13.672,-38.086,-48.340,0.000
1712217084.497,-40.039,-35.645,-27.832,-36.133,0.000
1712217084.501,-26.367,-32.227,-20.020,-26.855,0.000
1712217084.505,-16.602,-20.996,-36.133,-35.156,0.000
1712217084.508,-20.996,-23.926,-38.574,-43.945,0.000
1712217084.512,-36.133,-19.043,-32.227,-41.504,0.000
1712217084.517,-28.809,-20.508,-34.668,-36.621,0.000
1712217084.520,-25.879,-25.391,-35.156,-38.574,0.000
1712217084.524,-28.809,-15.137,-31.250,-39.551,0.000
1712217084.528,-19.531,-16.113,-15.625,-26.855,0.000
1712217084.532,-23.926,-24.902,-15.625,-29.785,0.000
1712217084.536,-41.992,-22.461,-34.668,-29.785,0.000
1712217084.540,-45.410,-23.438,-40.527,-26.367,0.000
1712217084.544,-20.020,-21.973,-31.738,-30.273,0.000
1712217084.548,-21.973,-21.973,-35.156,-42.480,0.000
1712217084.551,-50.781,-31.250,-38.574,-46.875,0.000
1712217084.555,-26.855,-31.738,-37.598,-39.551,0.000
1712217084.559,-7.324,-24.414,-42.969,-41.992,0.000
1712217084.564,-20.020,-30.273,-50.293,-49.805,0.000
1712217084.567,-47.852,-38.574,-47.852,-53.711,0.000
1712217084.571,-54.688,-39.551,-36.133,-51.758,0.000
1712217084.575,-45.898,-38.574,-46.387,-56.152,0.000
1712217084.579,-47.363,-41.504,-51.758,-45.410,0.000
1712217084.583,-41.016,-42.480,-52.734,-45.410,0.000
1712217084.587,-40.527,-45.898,-60.059,-63.477,0.000
1712217084.591,-60.059,-57.129,-60.059,-52.734,0.000
1712217084.594,-56.152,-53.711,-54.688,-41.504,0.000
1712217084.598,-29.297,-41.016,-54.199,-43.457,0.000
1712217084.602,-23.926,-27.832,-55.664,-35.645,0.000
1712217084.606,-22.461,-21.484,-44.922,-29.785,0.000
1712217084.610,-44.434,-30.762,-32.227,-27.344,0.000
1712217084.614,-49.316,-47.852,-36.621,-30.762,0.000
1712217084.618,-10.742,-47.363,-40.039,-33.203,0.000
1712217084.622,-22.949,-45.410,-32.715,-38.574,0.000
1712217084.626,-44.434,-39.062,-28.320,-35.156,0.000
1712217084.630,-20.996,-28.809,-21.973,-24.902,0.000
1712217084.634,-7.812,-42.480,-16.602,-22.461,0.000
1712217084.638,-22.461,-50.293,-25.391,-25.879,0.000
1712217084.641,-19.531,-37.598,-29.785,-26.367,0.000
1712217084.645,-22.949,-39.062,-29.785,-29.785,0.000
1712217084.649,-38.086,-50.293,-24.414,-30.273,0.000
1712217084.653,-45.898,-54.199,-13.672,-25.391,0.000
1712217084.657,-33.691,-57.617,-13.184,-27.832,0.000
1712217084.661,-30.273,-77.637,-6.348,-28.809,0.000
1712217084.665,-29.785,-85.449,-0.488,-30.762,0.000
1712217084.669,-27.344,-93.262,-6.348,-32.227,0.000
1712217084.673,-44.922,-103.027,-4.395,-28.320,0.000
1712217084.677,-41.504,-101.074,-1.465,-20.508,0.000
1712217084.681,-30.273,-96.191,-4.395,-28.809,0.000
1712217084.685,-14.648,-110.840,8.789,-31.738,0.000
1712217084.688,-2.441,-104.980,17.578,-15.625,0.000
1712217084.692,-31.738,-89.355,11.230,-22.949,0.000
1712217084.696,-38.574,-83.008,10.742,-28.320,0.000
1712217084.700,-30.762,-74.707,8.301,-25.879,0.000
1712217084.704,-44.922,-75.684,11.719,-25.391,0.000
1712217084.708,-49.316,-74.219,15.137,-17.578,0.000
1712217084.712,-37.109,-64.453,18.066,-28.809,0.000
1712217084.716,-29.785,-62.988,21.973,-34.180,0.000
1712217084.720,-21.973,-74.219,19.043,-26.367,0.000
1712217084.724,-34.668,-73.730,17.578,-28.320,0.000
1712217084.728,-41.504,-71.777,19.043,-19.531,0.000
1712217084.731,-24.414,-68.359,17.090,-11.230,0.000
1712217084.735,-29.297,-59.570,14.648,-7.324,0.000
1712217084.739,-17.090,-53.711,17.090,1.953,0.000
1712217084.743,-25.391,-53.711,14.160,-16.113,0.000
1712217084.747,-35.156,-45.410,14.648,-32.227,0.000
1712217084.751,-44.922,-55.176,20.508,-29.297,0.000
1712217084.755,-40.527,-55.664,16.602,-31.250,0.000
1712217084.759,-22.461,-41.504,21.484,-27.344,0.000
1712217084.763,-36.133,-52.246,19.043,-30.273,0.000
1712217084.767,-45.898,-62.988,4.395,-33.691,0.000
1712217084.771,-45.898,-56.641,1.953,-29.785,0.000
1712217084.774,-39.551,-48.828,0.977,-29.297,0.000
1712217084.778,-32.227,-52.246,-4.395,-29.297,0.000
1712217084.782,-36.621,-52.734,-4.395,-33.203,0.000
1712217084.786,-43.457,-37.109,-1.953,-37.109,0.000
1712217084.790,-48.828,-36.133,-9.277,-32.227,0.000
1712217084.794,-44.922,-29.785,-14.648,-33.691,0.000
1712217084.798,-27.832,-24.902,-13.184,-34.180,0.000
1712217084.802,-31.250,-32.715,-10.254,-38.574,0.000
1712217084.806,-40.527,-27.344,-4.883,-41.016,0.000
1712217084.810,-30.762,-20.020,-5.859,-32.227,0.000
1712217084.813,-18.555,-35.156,-5.371,-13.672,0.000
1712217084.817,-24.902,-40.039,-4.395,-20.996,0.000
1712217084.821,-47.852,-27.344,-15.137,-54.199,0.000
1712217084.825,-56.641,-34.668,-9.766,-50.293,0.000
1712217084.829,-41.504,-31.738,-6.348,-50.781,0.000
1712217084.833,-38.086,-27.344,-14.160,-54.688,0.000
1712217084.837,-46.387,-32.227,-8.301,-49.316,0.000
1712217084.841,-50.781,-29.297,-8.789,-54.688,0.000
1712217084.845,-53.223,-21.973,-8.301,-48.340,0.000
1712217084.849,-50.781,-22.949,-3.418,-38.574,0.000
1712217084.853,-45.410,-14.648,-10.742,-34.180,0.000
1712217084.856,-36.133,-9.766,-11.230,-34.668,0.000
1712217084.860,-29.297,-11.230,-4.883,-36.133,0.000
1712217084.864,-31.738,-2.441,-7.324,-42.480,0.000
1712217084.868,-40.039,10.254,-13.672,-47.852,0.000
1712217084.872,-28.320,7.324,-12.207,-37.598,0.000
1712217084.876,-22.461,-11.230,-11.230,-36.133,0.000
1712217084.880,-21.484,-10.742,-17.578,-34.668,0.000
1712217084.884,-27.344,-8.301,-17.578,-31.250,0.000
1712217084.887,-23.438,-7.812,-15.137,-30.273,0.000
1712217084.892,-9.277,0.000,-14.648,-18.555,0.000
1712217084.895,-26.367,-8.301,-12.695,-14.160,0.000
1712217084.899,-34.668,-17.578,-14.648,-22.949,0.000
1712217084.903,-26.367,-1.465,-19.531,-36.133,0.000
1712217084.907,-18.555,-2.930,-17.090,-37.598,0.000
1712217084.911,-29.297,-28.320,-17.090,-19.043,0.000
1712217084.915,-39.062,-21.973,-24.414,-12.695,0.000
1712217084.919,-22.461,-8.789,-20.020,-21.484,0.000
1712217084.923,-24.902,-15.625,-18.066,-16.113,0.000
1712217084.926,-34.668,-20.020,-28.809,-14.160,0.000
1712217084.930,-38.574,-25.391,-34.180,-24.414,0.000
1712217084.934,-37.598,-30.273,-29.297,-28.809,0.000
1712217084.939,-20.996,-26.855,-20.996,-19.531,0.000
1712217084.942,-19.531,-25.391,-19.043,-16.113,0.000
1712217084.946,-37.598,-21.484,-22.949,-26.855,0.000
1712217084.950,-41.016,-24.902,-25.391,-38.574,0.000
1712217084.954,-29.785,-30.762,-20.508,-34.668,0.000
1712217084.958,-20.020,-31.738,-20.996,-29.785,0.000
1712217084.962,-20.020,-31.250,-23.438,-26.855,0.000
1712217084.966,-27.344,-32.227,-23.926,-30.273,0.000
1712217084.970,-31.738,-23.438,-22.461,-37.598,0.000
1712217084.973,-26.367,-20.020,-17.578,-28.809,0.000
1712217084.977,-8.789,-24.414,-14.648,-25.879,0.000
1712217084.981,-17.578,-21.973,-20.508,-31.738,0.000
1712217084.986,-25.879,-26.367,-20.996,-31.250,0.000
1712217084.989,-28.320,-29.785,-22.461,-39.551,0.000
1712217084.993,-36.621,-23.926,-19.531,-31.738,0.000
1712217084.997,-25.391,-24.902,-18.066,-26.367,0.000
1712217085.001,-22.949,-27.344,-22.949,-28.809,0.000
1712217085.005,-26.855,-20.020,-26.855,-26.367,0.000
1712217085.009,-21.484,-25.879,-34.668,-22.461,0.000
1712217085.013,-28.809,-30.762,-41.504,-27.832,0.000
1712217085.017,-37.109,-32.715,-43.945,-25.879,0.000
1712217085.020,-25.879,-40.039,-41.016,-24.414,0.000
1712217085.024,-34.180,-36.621,-36.621,-34.668,0.000
1712217085.028,-35.156,-26.855,-37.109,-39.062,0.000
1712217085.032,-22.461,-30.762,-37.109,-37.598,0.000
1712217085.036,-20.020,-30.273,-31.738,-40.527,0.000
1712217085.040,-20.996,-28.809,-29.297,-22.461,0.000
1712217085.044,-24.902,-30.273,-38.086,-14.160,0.000
1712217085.048,-27.832,-33.203,-41.504,-28.320,0.000
1712217085.052,-25.879,-32.715,-40.039,-24.902,0.000
1712217085.056,-15.625,-31.250,-36.621,-30.273,0.000
1712217085.060,-20.996,-28.320,-37.598,-35.645,0.000
1712217085.063,-27.344,-16.113,-37.109,-21.484,0.000
1712217085.067,-31.250,-18.066,-32.715,-25.879,0.000
1712217085.071,-24.414,-27.832,-33.691,-39.062,0.000
1712217085.075,-16.602,-24.414,-37.109,-33.203,0.000
1712217085.079,-16.602,-13.672,-38.574,-34.180,0.000
1712217085.083,-29.785,-20.508,-26.855,-35.645,0.000
1712217085.087,-29.297,-20.996,-30.762,-33.203,0.000
1712217085.091,-20.508,-12.695,-41.992,-34.668,0.000
1712217085.095,-31.738,-24.414,-35.645,-28.320,0.000
1712217085.099,-36.621,-25.879,-35.156,-26.855,0.000
1712217085.103,-41.992,-23.926,-39.551,-36.133,0.000
1712217085.106,-48.340,-25.391,-39.062,-39.062,0.000
1712217085.110,-43.457,-25.879,-41.992,-32.715,0.000
1712217085.114,-40.039,-25.879,-45.410,-44.922,0.000
1712217085.118,-40.039,-22.461,-39.551,-45.898,0.000
1712217085.122,-32.715,-20.020,-31.250,-34.668,0.000
1712217085.126,-33.691,-28.809,-30.762,-34.180,0.000
1712217085.130,-25.879,-35.645,-33.203,-41.016,0.000
1712217085.134,-29.785,-35.645,-35.645,-47.363,0.000
1712217085.138,-37.598,-30.273,-38.086,-40.039,0.000
1712217085.142,-35.156,-20.020,-33.691,-43.945,0.000
1712217085.146,-46.387,-25.391,-35.156,-45.898,0.000
1712217085.149,-53.711,-39.062,-35.156,-22.949,0.000
1712217085.153,-31.738,-24.414,-30.762,-12.207,0.000
1712217085.157,-10.742,-20.996,-28.809,-13.672,0.000
1712217085.161,-20.508,-32.227,-27.832,-15.625,0.000
1712217085.165,-49.805,-38.574,-29.785,-20.996,0.000
1712217085.169,-49.805,-41.992,-30.273,-18.555,0.000
1712217085.173,-41.504,-38.574,-35.645,-25.391,0.000
1712217085.177,-28.320,-41.992,-38.574,-26.855,0.000
1712217085.181,-29.297,-44.922,-30.273,-14.648,0.000
1712217085.185,-46.875,-48.828,-25.879,-27.832,0.000
1712217085.189,-53.711,-58.105,-30.762,-35.156,0.000
1712217085.192,-48.340,-36.133,-32.227,-35.156,0.000
1712217085.196,-48.828,-31.250,-23.438,-34.180,0.000
1712217085.200,-29.297,-43.457,-32.715,-36.621,0.000
1712217085.204,-20.508,-48.828,-43.457,-43.945,0.000
1712217085.208,-33.203,-58.594,-33.203,-43.945,0.000
1712217085.212,-39.551,-48.340,-29.297,-37.598,0.000
1712217085.216,-34.180,-39.062,-34.668,-38.574,0.000
1712217085.220,-25.391,-39.062,-29.785,-46.387,0.000
1712217085.224,-17.578,-35.156,-23.438,-36.621,0.000
1712217085.228,-29.297,-34.668,-22.949,-25.391,0.000
1712217085.231,-32.227,-26.855,-20.996,-25.391,0.000
1712217085.235,-15.137,-24.902,-22.949,-27.344,0.000
1712217085.239,-24.414,-41.016,-28.809,-36.133,0.000
1712217085.243,-24.902,-42.480,-34.668,-33.691,0.000
1712217085.247,-33.203,-43.457,-41.992,-36.133,0.000
1712217085.251,-41.016,-43.457,-35.156,-38.086,0.000
1712217085.255,-40.039,-48.340,-24.414,-33.203,0.000
1712217085.259,-26.367,-49.316,-27.832,-43.945,0.000
1712217085.262,-25.391,-40.527,-37.598,-57.129,0.000
1712217085.267,-30.273,-38.574,-31.738,-46.387,0.000
1712217085.271,-17.090,-44.922,-19.531,-23.926,0.000
1712217085.274,-11.230,-39.551,-18.555,-32.227,0.000
1712217085.278,-18.066,-36.621,-20.508,-32.715,0.000
1712217085.282,-20.020,-40.527,-28.320,-36.133,0.000
1712217085.286,-19.043,-45.410,-39.062,-37.598,0.000
