timestamps,TP9,AF7,AF8,TP10,Right AUX
1711990017.567,-21.973,-76.172,-63.477,-13.184,0
1711990017.571,-96.68,-81.543,-63.965,-13.672,0
1711990017.574,-61.523,-81.055,-59.57,-22.461,0
1711990017.578,-36.621,-81.543,-57.129,-4.883,0
1711990017.581,-51.758,-83.496,-51.758,-5.371,0
1711990017.585,-37.109,-85.938,-40.527,13.184,0
1711990017.588,-6.836,-78.613,-42.969,27.832,0
1711990017.592,-21.484,-65.43,-53.223,-25.391,0
1711990017.595,-19.043,-65.918,-49.805,-20.02,0
1711990017.598,-53.711,-70.312,-40.039,21.484,0
1711990017.602,-68.359,-65.43,-37.598,29.297,0
1711990017.605,-11.719,-52.246,-41.504,-0.977,0
1711990017.606,-11.719,-42.969,-42.969,8.301,0
1711990017.609,-37.109,-45.898,-37.109,39.062,0
1711990017.613,-19.531,-46.875,-38.086,34.668,0
1711990017.616,-0.977,-40.039,-40.527,-0.488,0
1711990017.62,-2.93,-47.852,-33.691,27.832,0
1711990017.623,-1.465,-58.105,-28.32,39.551,0
1711990017.626,-19.043,-60.547,-29.785,22.461,0
1711990017.63,-7.324,-56.152,-33.691,28.809,0
1711990017.633,4.883,-50.293,-27.344,30.762,0
1711990017.637,-30.762,-56.152,-27.344,11.719,0
1711990017.64,-20.508,-53.223,-33.691,8.301,0
1711990017.643,8.789,-44.434,-30.762,28.32,0
1711990017.647,25.391,-46.387,-32.715,52.734,0
1711990017.65,1.953,-53.711,-38.574,67.871,0
1711990017.654,-35.645,-56.152,-48.34,26.855,0
1711990017.657,4.395,-47.363,-56.641,-17.09,0
1711990017.661,41.992,-38.086,-61.523,-7.812,0
1711990017.664,-21.973,-45.41,-56.152,8.301,0
1711990017.668,-4.395,-48.828,-54.199,40.527,0
1711990017.671,20.996,-50.781,-50.293,76.66,0
1711990017.674,-38.086,-48.828,-50.781,43.945,0
1711990017.678,-6.348,-43.945,-55.176,26.855,0
1711990017.681,19.531,-47.852,-40.039,45.898,0
1711990017.685,-22.461,-50.781,-35.156,15.625,0
1711990017.689,-51.27,-47.363,-38.574,14.16,0
1711990017.692,-13.672,-49.316,-40.527,27.832,0
1711990017.696,-35.645,-59.57,-36.621,7.324,0
1711990017.699,-110.352,-57.129,-37.598,-25.879,0
1711990017.702,-118.164,-57.129,-40.039,-19.043,0
1711990017.706,-92.285,-57.129,-35.156,-29.297,0
1711990017.709,-90.82,-51.27,-37.598,-45.898,0
1711990017.713,-119.141,-48.828,-34.18,-63.477,0
1711990017.716,-127.93,-45.41,-35.156,-71.289,0
1711990017.72,-107.422,-43.945,-47.852,-87.891,0
1711990017.723,-112.305,-43.457,-50.781,-82.52,0
1711990017.726,-180.176,-45.898,-49.805,-101.074,0
1711990017.731,-218.75,-51.758,-46.875,-100.098,0
1711990017.734,-176.758,-51.758,-47.852,-55.176,0
1711990017.738,-137.207,-50.781,-62.012,-117.676,0
1711990017.741,-130.371,-41.504,-67.383,-132.812,0
1711990017.745,-206.055,-46.875,-54.688,-81.543,0
1711990017.748,-221.68,-58.594,-54.199,-107.422,0
1711990017.752,-163.086,-54.688,-60.547,-104.98,0
1711990017.755,-150.879,-49.316,-63.965,-85.938,0
1711990017.758,-115.234,-50.293,-64.453,-77.148,0
1711990017.762,-122.559,-54.688,-60.547,-56.641,0
1711990017.765,-107.91,-56.152,-62.012,-26.367,0
1711990017.769,-83.984,-60.547,-72.754,-16.113,0
1711990017.774,-104.004,-68.848,-73.73,-34.18,0
1711990017.777,-72.754,-72.266,-70.312,-79.59,0
1711990017.781,-81.543,-67.871,-68.848,-125.488,0
1711990017.784,-103.027,-65.918,-74.707,-90.332,0
1711990017.787,-43.945,-60.059,-81.543,-50.293,0
1711990017.791,-13.672,-51.758,-86.914,-42.48,0
1711990017.794,-57.129,-58.105,-90.332,-44.434,0
1711990017.798,-46.875,-56.152,-90.332,-56.152,0
1711990017.801,-23.926,-50.293,-83.008,-42.969,0
1711990017.805,-16.602,-54.199,-71.289,-40.527,0
1711990017.808,-34.668,-59.082,-60.547,-13.184,0
1711990017.812,-4.395,-62.988,-51.27,7.324,0
1711990017.817,52.734,-58.105,-49.805,1.953,0
1711990017.82,-20.508,-60.059,-47.852,5.371,0
1711990017.824,-60.547,-64.453,-46.387,43.945,0
1711990017.827,-36.133,-66.406,-46.875,48.828,0
1711990017.83,-4.395,-64.941,-53.223,4.395,0
1711990017.834,-10.254,-76.172,-59.082,-27.344,0
1711990017.837,-8.301,-79.102,-69.824,-13.672,0
1711990017.841,-17.09,-79.102,-79.59,-4.395,0
1711990017.844,-50.293,-88.379,-75.195,-5.859,0
1711990017.848,-38.574,-93.75,-68.359,-14.648,0
1711990017.851,-47.363,-101.074,-75.195,-14.16,0
1711990017.855,-49.805,-101.562,-79.59,31.738,0
1711990017.86,-32.715,-114.258,-80.566,-16.113,0
1711990017.863,0.977,-131.836,-88.867,-78.125,0
1711990017.867,-66.895,-147.949,-90.82,-43.457,0
1711990017.87,-125,-168.457,-90.332,-32.715,0
1711990017.874,-81.055,-170.41,-88.379,-60.547,0
1711990017.877,-77.637,-172.852,-84.961,-41.016,0
1711990017.881,-79.102,-173.828,-83.008,12.207,0
1711990017.884,-41.992,-155.273,-84.473,-4.883,0
1711990017.888,-40.039,-143.066,-80.566,-56.152,0
1711990017.891,-69.824,-139.16,-70.801,-32.227,0
1711990017.895,-49.316,-133.301,-66.406,-31.738,0
1711990017.898,-61.035,-117.676,-69.824,-47.852,0
1711990017.904,-47.852,-102.051,-67.383,-26.367,0
1711990017.907,-51.27,-104.004,-56.641,-44.922,0
1711990017.911,-90.82,-104.004,-52.734,-4.883,0
1711990017.914,-56.641,-91.797,-45.898,9.277,0
1711990017.917,-32.227,-81.055,-42.969,-14.16,0
1711990017.921,2.441,-76.172,-51.758,-14.648,0
1711990017.924,-24.902,-79.102,-51.758,-8.301,0
1711990017.928,-68.359,-74.219,-45.41,1.465,0
1711990017.931,-26.367,-66.406,-44.922,-5.371,0
1711990017.935,8.301,-68.359,-43.945,26.855,0
1711990017.938,4.883,-62.988,-45.41,24.902,0
1711990017.942,-26.367,-55.664,-47.363,-12.695,0
1711990017.947,-39.062,-55.176,-41.992,12.207,0
1711990017.951,-14.16,-51.27,-38.086,24.414,0
1711990017.954,12.207,-45.41,-38.574,14.16,0
1711990017.958,38.574,-40.039,-35.645,15.137,0
1711990017.961,-2.93,-37.109,-36.133,7.812,0
1711990017.965,-16.602,-30.762,-35.156,63.477,0
1711990017.968,3.418,-27.832,-34.18,55.664,0
1711990017.972,-0.488,-37.109,-32.227,7.324,0
1711990017.975,2.93,-31.738,-36.133,43.457,0
1711990017.979,9.277,-28.809,-43.457,39.551,0
1711990017.982,23.438,-36.621,-37.109,47.363,0
1711990017.986,27.344,-35.156,-29.785,88.379,0
1711990017.993,28.809,-31.25,-28.32,80.078,0
1711990017.997,37.598,-33.691,-26.367,40.527,0
1711990018,9.277,-35.156,-31.738,40.527,0
1711990018.004,-19.043,-32.227,-36.621,27.832,0
1711990018.007,47.852,-26.367,-30.762,20.508,0
1711990018.011,45.898,-29.785,-26.367,22.461,0
1711990018.014,-32.227,-32.715,-19.043,69.336,0
1711990018.018,13.672,-27.344,-17.09,47.363,0
1711990018.021,27.832,-21.973,-23.438,0.488,0
1711990018.025,-25.391,-28.32,-29.297,24.902,0
1711990018.028,9.277,-26.367,-35.645,27.344,0
1711990018.032,30.273,-22.949,-34.668,31.738,0
1711990018.039,12.695,-24.414,-34.18,58.594,0
1711990018.042,-3.906,-24.902,-40.527,51.27,0
1711990018.046,35.645,-26.367,-45.41,-6.348,0
1711990018.049,18.066,-25.391,-44.922,28.809,0
1711990018.053,27.832,-27.832,-42.48,45.898,0
1711990018.056,54.688,-37.109,-32.715,33.691,0
1711990018.06,-49.805,-36.133,-18.555,26.367,0
1711990018.063,-44.434,-31.738,-14.16,8.301,0
1711990018.067,-42.48,-40.039,-15.137,14.16,0
1711990018.071,-44.922,-45.41,-8.789,0.977,0
1711990018.074,-0.488,-39.062,-3.906,-12.695,0
1711990018.078,-54.199,-38.574,0,-41.016,0
1711990018.084,-83.008,-49.316,6.348,-33.203,0
1711990018.088,-78.613,-55.664,3.418,-21.973,0
1711990018.091,-23.438,-59.082,4.883,16.113,0
1711990018.095,6.348,-61.523,7.812,32.227,0
1711990018.099,-72.266,-62.012,-3.906,-15.625,0
1711990018.102,-33.691,-68.359,-2.441,-14.16,0
1711990018.106,-7.812,-65.43,1.465,-25.879,0
1711990018.109,-18.555,-54.199,-8.789,-0.488,0
1711990018.113,-30.762,-62.5,-8.301,79.102,0
1711990018.116,-60.547,-60.059,-12.695,37.598,0
1711990018.12,-61.035,-47.852,-26.855,-11.23,0
1711990018.123,22.461,-53.711,-20.996,-9.277,0
1711990018.13,10.742,-57.129,-20.02,-42.48,0
1711990018.134,-54.688,-55.176,-19.043,-4.883,0
1711990018.137,-22.461,-44.434,-10.742,24.902,0
1711990018.141,-19.043,-30.273,-15.137,31.738,0
1711990018.144,3.418,-22.461,-24.414,34.668,0
1711990018.148,42.48,-14.16,-30.762,3.418,0
1711990018.151,-0.977,-9.766,-34.18,-42.969,0
1711990018.155,-62.5,-8.789,-35.645,0,0
1711990018.159,-56.152,-19.531,-28.32,18.066,0
1711990018.162,-75.684,-20.508,-17.578,-2.441,0
1711990018.166,-81.055,-15.137,-20.996,0,0
1711990018.169,-45.41,-14.648,-30.762,23.926,0
1711990018.177,-47.363,-13.672,-31.25,36.133,0
1711990018.181,-16.113,-9.766,-38.086,-45.41,0
1711990018.184,-24.902,-18.555,-44.922,-57.617,0
1711990018.188,-46.875,-22.949,-43.457,-35.156,0
1711990018.191,-31.25,1.465,-45.898,-27.832,0
1711990018.195,-66.895,14.648,-70.801,-18.555,0
1711990018.199,-97.168,11.23,-92.285,28.32,0
1711990018.202,-92.285,-4.883,-81.055,-47.852,0
1711990018.206,-95.703,-22.461,-70.801,-90.332,0
1711990018.209,-122.07,-13.672,-83.008,-31.738,0
1711990018.213,-94.727,-10.742,-84.473,-60.059,0
1711990018.217,-93.262,-22.949,-73.242,-63.477,0
1711990018.223,-173.34,-49.316,-116.211,-109.863,0
1711990018.226,-135.254,-51.27,-133.301,-128.418,0
1711990018.23,-112.305,-45.41,-99.609,-37.598,0
1711990018.234,-131.836,-73.73,-134.766,-70.312,0
1711990018.237,-145.996,-108.887,-179.688,-142.09,0
1711990018.241,-214.355,-136.719,-192.383,-154.297,0
1711990018.244,-255.371,-179.688,-232.422,-227.051,0
1711990018.248,-243.164,-197.754,-194.824,-193.359,0
1711990018.252,-270.02,-246.582,-213.867,-228.516,0
1711990018.255,-359.863,-337.891,-327.148,-338.867,0
1711990018.259,-436.523,-410.156,-381.348,-383.789,0
1711990018.262,-534.18,-517.09,-478.027,-446.289,0
1711990018.268,-624.512,-641.113,-577.637,-542.48,0
1711990018.272,-729.004,-772.949,-678.711,-699.219,0
1711990018.275,-926.758,-932.129,-822.266,-899.902,0
1711990018.279,-1000,-1000,-947.754,-1000,0
1711990018.283,-995.605,-996.582,-995.117,-995.605,0
1711990018.286,-1000,-1000,-999.512,-999.512,0
1711990018.29,-1000,-1000,-999.512,-1000,0
1711990018.294,-1000,-1000,-1000,-1000,0
1711990018.297,-1000,-1000,-1000,-1000,0
1711990018.301,-1000,-1000,-1000,-1000,0
1711990018.304,-1000,-1000,-999.023,-1000,0
1711990018.308,-1000,-1000,-1000,-1000,0
1711990018.314,-1000,-1000,-987.793,-1000,0
1711990018.317,-1000,-1000,-942.383,-1000,0
1711990018.321,-1000,-1000,-886.719,-1000,0
1711990018.325,-1000,-1000,-836.426,-999.512,0
1711990018.328,-1000,-1000,-795.41,-999.023,0
1711990018.332,-1000,-999.512,-755.371,-1000,0
1711990018.336,-999.023,-1000,-735.352,-946.777,0
1711990018.339,-1000,-990.234,-726.562,-920.41,0
1711990018.343,-991.211,-954.102,-718.262,-963.867,0
1711990018.346,-947.754,-914.551,-708.496,-911.133,0
1711990018.35,-876.953,-878.418,-680.664,-833.984,0
1711990018.354,-856.445,-834.473,-630.859,-787.109,0
1711990018.362,-854.492,-778.809,-582.031,-742.188,0
1711990018.366,-767.578,-718.262,-540.039,-634.766,0
1711990018.369,-664.551,-658.203,-491.211,-603.027,0
1711990018.373,-625.977,-598.145,-443.359,-586.426,0
1711990018.376,-571.777,-538.086,-390.625,-478.516,0
1711990018.38,-483.398,-473.633,-335.449,-396.484,0
1711990018.384,-451.66,-400.391,-292.969,-346.68,0
1711990018.387,-335.938,-325.195,-255.371,-283.691,0
1711990018.391,-246.094,-253.906,-205.078,-181.152,0
1711990018.395,-265.625,-190.918,-141.602,-113.281,0
1711990018.398,-189.453,-126.953,-91.309,-60.547,0
1711990018.402,-90.332,-68.848,-57.617,-36.621,0
1711990018.409,-64.453,-38.086,-21.484,35.645,0
1711990018.412,-30.762,-3.418,2.441,46.875,0
1711990018.416,0,32.715,13.672,29.785,0
1711990018.419,20.996,56.641,39.551,119.141,0
1711990018.423,26.367,80.566,62.5,121.582,0
1711990018.427,49.316,100.586,67.871,112.305,0
1711990018.43,99.609,116.699,79.59,163.574,0
1711990018.434,110.84,132.324,91.797,191.895,0
1711990018.438,107.422,143.066,104.492,206.543,0
1711990018.441,109.375,151.855,114.258,241.211,0
1711990018.445,137.207,155.273,119.629,248.047,0
1711990018.449,172.852,162.598,125.488,188.477,0
1711990018.455,159.668,167.969,125.977,182.617,0
1711990018.459,166.016,172.363,134.277,240.723,0
1711990018.462,154.297,169.922,146.484,246.582,0
1711990018.466,145.02,169.922,147.461,218.262,0
1711990018.47,185.059,179.199,144.531,239.258,0
1711990018.473,189.941,180.664,145.02,233.887,0
1711990018.477,182.129,176.758,149.414,234.375,0
1711990018.481,212.402,172.363,151.367,253.906,0
1711990018.484,215.82,171.875,150.879,302.734,0
1711990018.488,203.125,173.34,150.391,264.648,0
1711990018.492,187.988,172.852,159.668,209.961,0
1711990018.495,216.797,170.898,161.133,243.164,0
1711990018.502,215.82,167.48,149.902,234.375,0
1711990018.505,163.086,162.109,153.809,243.652,0
1711990018.509,210.449,157.227,158.203,244.141,0
1711990018.513,220.703,148.438,154.297,231.445,0
1711990018.516,170.41,142.578,143.066,176.27,0
1711990018.52,175.781,133.301,131.348,174.805,0
1711990018.524,176.27,114.746,113.77,217.773,0
1711990018.527,192.383,104.004,99.609,199.707,0
1711990018.531,162.109,95.215,113.77,191.406,0
1711990018.535,142.578,88.867,89.355,185.547,0
1711990018.538,188.477,74.707,29.297,180.176,0
1711990018.542,157.227,50.781,34.18,179.199,0
1711990018.548,56.152,36.133,83.496,128.906,0
1711990018.552,64.453,63.477,108.887,141.602,0
1711990018.555,102.051,78.125,94.727,162.109,0
1711990018.559,89.844,48.34,83.496,63.965,0
1711990018.563,60.547,46.387,75.195,61.035,0
1711990018.566,81.055,55.664,77.148,93.262,0
1711990018.57,112.305,71.777,84.473,110.352,0
1711990018.574,132.812,87.402,94.238,136.23,0
1711990018.577,166.504,101.074,113.281,141.113,0
1711990018.581,125.977,113.77,126.953,180.664,0
1711990018.585,148.438,122.07,138.184,193.848,0
1711990018.588,182.617,135.254,151.855,215.82,0
1711990018.594,199.219,151.855,155.273,215.82,0
1711990018.598,205.078,164.062,163.086,193.848,0
1711990018.602,181.641,175.293,173.828,200.684,0
1711990018.605,218.262,177.734,177.734,227.539,0
1711990018.609,222.656,176.758,180.176,238.281,0
1711990018.613,221.68,186.523,182.129,234.375,0
1711990018.616,230.957,191.895,184.082,223.633,0
1711990018.62,214.844,187.5,187.988,221.68,0
1711990018.624,193.848,185.547,194.824,238.281,0
1711990018.627,206.543,187.5,196.289,234.863,0
1711990018.631,216.309,183.594,191.406,216.309,0
1711990018.635,174.316,181.152,185.059,220.215,0
1711990018.64,189.453,177.246,179.688,199.219,0
1711990018.644,191.406,171.875,173.828,213.379,0
1711990018.648,180.664,172.852,167.48,185.059,0
1711990018.651,160.645,170.41,158.203,132.812,0
1711990018.655,128.906,160.645,157.227,183.105,0
1711990018.659,137.695,152.344,152.344,163.574,0
1711990018.663,142.578,149.414,145.996,169.922,0
1711990018.666,138.672,140.625,134.277,190.918,0
1711990018.67,196.289,139.16,113.77,120.605,0
1711990018.674,163.086,130.859,106.445,95.215,0
1711990018.677,61.035,112.305,105.957,107.422,0
1711990018.681,64.453,103.516,96.68,107.422,0
1711990018.687,85.938,95.703,80.566,125.488,0
1711990018.69,110.84,92.285,77.148,104.004,0
1711990018.694,104.004,85.449,74.707,89.844,0
1711990018.698,75.195,75.195,62.988,129.395,0
1711990018.701,51.27,62.012,56.641,86.914,0
1711990018.705,34.18,49.316,41.016,58.594,0
1711990018.709,41.016,37.109,32.227,70.801,0
1711990018.712,44.922,30.762,29.785,43.457,0
1711990018.716,18.066,24.414,24.902,31.738,0
1711990018.72,35.645,15.625,26.855,57.129,0
1711990018.723,46.387,18.066,15.137,73.242,0
1711990018.727,17.09,17.578,4.883,72.754,0
1711990018.734,15.137,10.742,2.441,58.594,0
1711990018.737,10.742,3.418,-9.277,-17.09,0
1711990018.741,29.297,-0.977,-15.137,-5.371,0
1711990018.745,38.574,0,-15.625,32.715,0
1711990018.748,-5.859,-5.371,-17.09,23.438,0
1711990018.752,5.859,-10.742,-14.16,2.93,0
1711990018.756,1.465,-9.766,-13.672,30.762,0
1711990018.76,-1.953,-13.184,-16.602,10.254,0
1711990018.763,23.438,-17.09,-16.113,-24.902,0
1711990018.767,-17.09,-19.043,-18.066,-16.113,0
1711990018.771,-58.594,-26.367,-21.973,-9.277,0
1711990018.774,-31.25,-36.621,-26.367,1.953,0
1711990018.781,-13.672,-44.434,-27.832,-27.344,0
1711990018.784,10.254,-43.945,-31.738,-29.785,0
1711990018.788,3.906,-38.086,-34.18,-22.949,0
1711990018.792,-53.711,-39.062,-30.762,-26.855,0
1711990018.795,-32.715,-44.434,-33.203,-29.297,0
1711990018.799,-26.855,-52.734,-39.551,-41.016,0
1711990018.803,-41.016,-54.688,-45.898,-36.133,0
1711990018.807,-13.184,-54.688,-44.434,-23.926,0
1711990018.81,-12.207,-54.199,-43.457,-57.129,0
1711990018.814,-37.598,-61.035,-46.387,-47.363,0
1711990018.818,-49.316,-65.43,-54.199,-36.621,0
1711990018.821,-64.453,-65.918,-55.176,-47.363,0
1711990018.827,-63.965,-64.453,-49.316,-46.387,0
1711990018.831,-65.918,-58.594,-46.387,-58.105,0
1711990018.835,-53.711,-56.641,-49.316,-53.223,0
1711990018.839,-39.551,-58.105,-55.176,-61.035,0
1711990018.842,-77.148,-69.824,-53.711,-71.289,0
1711990018.846,-88.867,-80.078,-54.688,-48.34,0
1711990018.85,-79.59,-65.918,-65.43,-53.223,0
1711990018.853,-105.469,-50.293,-75.684,-111.816,0
1711990018.857,-127.441,-46.875,-79.102,-118.164,0
1711990018.861,-120.117,-52.246,-80.566,-98.145,0
1711990018.865,-113.281,-46.387,-83.008,-143.066,0
1711990018.868,-149.414,-29.297,-88.867,-152.832,0
1711990018.874,-170.41,-28.809,-97.168,-169.922,0
1711990018.878,-136.23,-26.367,-99.121,-203.613,0
1711990018.882,-142.578,-19.043,-90.332,-186.035,0
1711990018.885,-193.848,-18.066,-85.449,-170.41,0
1711990018.889,-168.945,-5.371,-89.355,-168.457,0
1711990018.893,-152.832,-0.977,-93.75,-190.918,0
1711990018.897,-157.227,-1.953,-95.703,-207.031,0
1711990018.9,-145.996,0.977,-96.191,-176.758,0
1711990018.904,-154.297,4.883,-104.004,-190.918,0
1711990018.908,-123.047,12.207,-113.281,-163.086,0
1711990018.911,-120.117,18.066,-105.469,-122.07,0
1711990018.915,-117.188,21.973,-94.727,-145.996,0
1711990018.921,-100.098,16.602,-95.215,-134.766,0
1711990018.925,-98.145,18.066,-90.82,-125.488,0
1711990018.928,-78.613,16.602,-79.102,-78.125,0
1711990018.932,-68.359,10.254,-72.266,-66.406,0
1711990018.936,-54.688,14.648,-73.242,-86.914,0
1711990018.94,-44.922,12.207,-78.125,-55.664,0
1711990018.943,-62.012,3.418,-71.289,-53.711,0
1711990018.947,-52.734,-0.977,-61.523,-62.5,0
1711990018.951,-12.695,0.488,-59.57,-34.18,0
1711990018.954,-15.625,0.488,-53.711,-13.672,0
1711990018.958,-14.648,0.488,-46.387,-27.832,0
1711990018.962,-5.859,1.465,-50.293,-3.906,0
1711990018.967,-34.668,-6.348,-51.27,3.906,0
1711990018.971,-19.043,-9.277,-42.48,-20.996,0
1711990018.975,9.766,-9.277,-46.875,-34.668,0
1711990018.979,3.418,-15.137,-51.27,-16.602,0
1711990018.982,-47.852,-16.113,-45.41,-22.461,0
1711990018.986,-13.184,-20.508,-43.945,-24.414,0
1711990018.99,0.488,-23.438,-45.41,-20.996,0
1711990018.994,-54.199,-22.949,-41.504,-27.832,0
1711990018.997,-15.137,-20.508,-36.133,-8.301,0
1711990019.001,-25.879,-21.973,-37.109,-20.996,0
1711990019.005,-37.109,-24.902,-34.668,-20.996,0
1711990019.009,3.418,-20.996,-27.344,-8.301,0
1711990019.014,-22.949,-18.066,-25.879,-18.555,0
1711990019.018,-41.016,-20.508,-22.461,-8.789,0
1711990019.021,-0.488,-19.043,-16.113,16.602,0
1711990019.025,5.859,-6.836,-12.695,17.09,0
1711990019.029,3.418,-0.488,-4.395,23.926,0
1711990019.033,25.391,-4.395,6.348,44.434,0
1711990019.036,19.531,-1.953,8.301,21.973,0
1711990019.04,11.719,8.301,5.371,17.09,0
1711990019.044,44.434,8.789,0.977,50.293,0
1711990019.048,27.832,6.836,8.789,44.434,0
1711990019.051,38.574,9.277,14.648,12.695,0
1711990019.055,38.086,7.812,16.113,13.184,0
1711990019.06,-0.488,7.324,16.602,22.949,0
1711990019.064,11.719,7.812,14.648,12.695,0
1711990019.068,27.344,13.672,20.02,3.906,0
1711990019.072,54.199,21.484,22.949,20.996,0
1711990019.075,37.598,15.137,21.973,34.668,0
1711990019.079,31.25,10.742,20.02,17.09,0
1711990019.083,61.035,18.066,18.555,25.879,0
1711990019.087,35.645,11.23,21.973,41.504,0
1711990019.09,34.18,7.324,16.113,12.207,0
1711990019.094,68.848,15.137,14.16,8.789,0
1711990019.098,43.945,17.578,22.461,41.992,0
1711990019.101,11.23,12.207,24.414,36.133,0
1711990019.108,54.688,13.672,16.113,33.691,0
1711990019.111,79.102,17.578,12.207,42.969,0
1711990019.115,29.785,15.625,16.602,48.34,0
1711990019.119,9.766,13.184,16.113,17.09,0
1711990019.123,24.414,11.23,15.625,-13.672,0
1711990019.126,20.02,7.812,16.602,27.832,0
1711990019.13,48.34,10.254,12.207,42.969,0
1711990019.134,68.359,18.066,12.207,18.555,0
1711990019.138,30.273,17.09,7.324,9.766,0
1711990019.141,14.648,10.742,6.348,19.043,0
1711990019.145,24.414,4.883,15.625,54.199,0
1711990019.149,24.414,6.836,14.648,14.648,0
1711990019.155,35.156,9.277,7.812,-19.531,0
1711990019.158,52.734,5.859,3.418,12.207,0
1711990019.162,27.344,-2.441,5.371,24.414,0
1711990019.166,23.438,-0.977,6.348,13.184,0
1711990019.17,57.129,5.859,3.418,11.719,0
1711990019.173,75.195,2.93,0.488,37.598,0
1711990019.177,25.879,-0.488,1.953,29.297,0
1711990019.181,-1.953,-3.906,3.906,1.465,0
1711990019.185,25.879,0,5.371,18.555,0
1711990019.188,46.387,6.836,4.395,38.086,0
1711990019.192,54.688,5.371,-7.812,1.953,0
1711990019.196,44.922,1.465,-7.324,-4.883,0
1711990019.202,9.766,-4.883,4.883,24.902,0
1711990019.205,17.09,-4.395,-2.441,5.371,0
1711990019.209,7.812,-0.977,-1.953,5.859,0
1711990019.213,-28.809,4.883,6.836,-10.742,0
1711990019.217,3.418,4.883,7.812,-11.23,0
1711990019.22,31.738,4.395,7.324,4.883,0
1711990019.224,12.207,13.184,5.859,-20.508,0
1711990019.228,-0.488,9.277,2.441,-28.32,0
1711990019.232,-5.859,12.207,-2.441,-10.254,0
1711990019.235,-34.18,20.996,-1.465,-8.789,0
1711990019.239,-6.348,25.391,11.23,13.184,0
1711990019.243,22.461,27.832,18.066,16.602,0
1711990019.249,16.602,35.156,15.137,10.254,0
1711990019.252,0.488,36.133,16.602,31.25,0
1711990019.256,1.465,35.156,22.949,-27.344,0
1711990019.26,9.277,43.457,28.809,-20.02,0
1711990019.264,23.438,43.457,31.25,9.277,0
1711990019.267,34.668,46.875,36.621,17.578,0
1711990019.271,58.594,49.316,46.387,35.645,0
1711990019.275,44.434,44.434,50.293,32.715,0
1711990019.279,27.344,46.387,49.316,23.926,0
1711990019.282,41.016,50.781,44.922,44.434,0
1711990019.286,36.133,51.27,47.363,22.461,0
1711990019.29,49.805,48.828,51.27,-10.742,0
1711990019.295,41.504,46.875,53.711,6.348,0
1711990019.299,28.32,55.176,58.105,11.719,0
1711990019.303,55.176,56.641,66.406,45.41,0
1711990019.307,61.035,55.664,63.965,74.707,0
1711990019.31,62.5,56.641,58.105,48.34,0
1711990019.314,59.57,53.711,60.547,46.875,0
1711990019.318,70.801,55.176,62.988,70.801,0
1711990019.322,100.586,61.035,71.289,48.828,0
1711990019.325,76.66,60.059,74.219,43.457,0
1711990019.329,79.59,49.316,75.195,76.66,0
1711990019.333,90.82,41.992,70.801,54.688,0
1711990019.337,75.684,44.434,65.43,43.457,0
1711990019.342,48.34,41.992,62.5,47.363,0
1711990019.346,31.25,40.039,58.105,28.32,0
1711990019.35,46.387,40.527,46.875,30.273,0
1711990019.353,54.688,44.922,42.48,21.484,0
1711990019.357,37.109,48.828,44.434,27.344,0
1711990019.361,35.156,26.855,45.41,22.461,0
1711990019.365,44.922,37.598,41.504,23.438,0
1711990019.368,48.34,64.941,35.645,46.875,0
1711990019.372,47.852,56.641,37.109,36.621,0
1711990019.376,54.688,43.945,43.945,33.203,0
1711990019.38,27.832,43.945,56.641,45.41,0
1711990019.383,11.719,41.504,56.152,23.926,0
1711990019.389,15.625,42.969,55.176,15.625,0
1711990019.392,21.973,43.945,51.27,14.16,0
1711990019.396,14.16,39.551,44.434,12.207,0
1711990019.4,18.555,40.039,48.828,32.227,0
1711990019.404,41.992,43.457,55.664,24.902,0
1711990019.407,3.906,36.133,58.105,34.18,0
1711990019.411,-5.371,35.645,50.781,43.457,0
1711990019.415,-10.254,30.762,37.109,26.855,0
1711990019.419,0,13.672,42.48,16.113,0
1711990019.422,26.367,30.762,41.016,4.395,0
1711990019.426,-8.789,45.898,31.25,16.113,0
1711990019.43,-9.766,34.668,44.434,21.484,0
1711990019.435,15.137,31.25,58.594,-13.184,0
1711990019.439,45.898,29.785,60.059,-9.277,0
1711990019.443,34.18,33.203,51.758,35.156,0
1711990019.446,23.438,48.828,55.176,27.832,0
1711990019.45,16.113,55.176,61.035,-6.836,0
1711990019.454,-30.273,47.363,63.965,21.484,0
1711990019.458,-29.785,34.18,71.777,19.531,0
1711990019.461,-59.082,19.531,77.637,-19.043,0
1711990019.465,-52.246,13.184,89.355,-11.23,0
1711990019.469,-8.301,12.695,93.262,17.09,0
1711990019.473,-34.668,9.277,95.703,-2.93,0
1711990019.477,-42.48,3.906,99.609,-28.32,0
1711990019.482,-9.766,2.441,99.121,-17.09,0
1711990019.486,-46.875,9.277,101.074,-14.648,0
1711990019.49,-76.66,2.93,113.77,5.859,0
1711990019.494,-71.777,-7.324,117.676,17.578,0
1711990019.497,-38.574,-6.836,114.258,5.371,0
1711990019.501,-1.465,0.488,124.023,-0.488,0
1711990019.505,-40.039,4.395,120.117,8.789,0
1711990019.509,-44.434,0.488,117.188,27.344,0
1711990019.512,-15.137,0.977,121.094,29.297,0
1711990019.516,-37.109,-2.441,123.047,-4.395,0
1711990019.52,-16.602,4.395,127.93,-3.906,0
1711990019.524,-13.184,15.137,128.418,35.156,0
1711990019.529,8.301,18.555,121.094,40.039,0
1711990019.533,-4.883,17.578,119.141,27.344,0
1711990019.537,-16.113,18.555,118.652,23.926,0
1711990019.541,14.648,26.855,119.141,40.039,0
1711990019.545,27.832,25.879,122.07,62.5,0
1711990019.548,40.039,24.414,117.676,39.551,0
1711990019.552,33.203,29.297,104.98,25.879,0
1711990019.556,40.039,30.273,99.121,25.391,0
1711990019.56,23.926,40.039,105.957,32.715,0
1711990019.563,27.344,50.781,100.098,47.852,0
1711990019.567,40.039,40.527,87.402,57.617,0
1711990019.571,54.688,35.645,96.191,59.082,0
1711990019.576,80.566,42.48,104.492,60.547,0
1711990019.58,52.734,45.898,98.633,80.566,0
1711990019.584,41.504,51.27,91.309,75.195,0
1711990019.588,41.504,53.711,94.238,44.434,0
1711990019.592,78.613,53.711,95.215,50.781,0
1711990019.595,84.473,44.434,97.656,83.984,0
1711990019.599,57.129,34.668,99.121,97.656,0
1711990019.603,47.363,47.852,94.238,71.289,0
1711990019.607,28.809,59.082,92.285,54.199,0
1711990019.61,70.801,53.223,83.984,73.73,0
1711990019.614,83.496,53.223,83.496,79.59,0
1711990019.618,55.176,52.734,83.496,53.223,0
1711990019.623,37.598,53.223,76.172,39.062,0
1711990019.627,39.551,56.152,79.59,61.035,0
1711990019.631,74.707,52.734,84.473,43.457,0
1711990019.635,72.754,53.711,83.496,36.133,0
1711990019.638,61.035,59.57,88.379,67.871,0
1711990019.642,45.41,65.43,85.449,83.496,0
1711990019.646,46.387,61.523,82.031,66.895,0
1711990019.65,66.406,58.594,82.52,41.016,0
1711990019.654,43.945,59.082,78.613,73.73,0
1711990019.657,28.32,58.594,86.914,61.523,0
1711990019.661,37.598,59.57,93.75,39.062,0
1711990019.665,43.457,59.082,86.426,69.824,0
1711990019.67,57.617,66.406,81.055,88.867,0
1711990019.674,50.293,65.43,84.961,70.312,0
1711990019.678,52.734,64.941,82.52,25.391,0
1711990019.682,39.551,78.125,77.637,52.734,0
1711990019.685,14.16,78.125,84.961,80.566,0
1711990019.689,56.152,81.543,85.938,69.824,0
1711990019.693,82.031,92.773,78.613,74.219,0
1711990019.697,62.012,97.656,72.754,93.75,0
1711990019.7,32.715,92.285,67.871,82.52,0
1711990019.704,31.25,89.355,65.918,64.453,0
1711990019.708,58.594,76.172,67.871,66.406,0
1711990019.712,64.941,61.523,64.453,51.758,0
1711990019.717,55.176,85.938,58.594,55.176,0
1711990019.721,77.148,105.469,62.012,77.637,0
1711990019.725,78.613,103.516,60.059,118.652,0
1711990019.728,78.125,94.238,59.082,96.68,0
1711990019.732,83.008,88.379,63.965,54.688,0
1711990019.736,54.199,85.938,62.988,86.914,0
1711990019.74,50.781,78.125,67.871,143.555,0
1711990019.743,57.129,74.707,62.012,69.336,0
1711990019.747,75.195,67.871,56.641,35.645,0
1711990019.751,98.145,77.148,57.617,91.797,0
1711990019.755,95.215,92.773,61.523,-10.254,0
1711990019.759,84.961,88.867,49.805,-20.508,0
1711990019.764,87.402,73.242,50.781,39.062,0
1711990019.767,64.941,74.219,68.848,28.809,0
1711990019.771,49.316,70.312,70.312,34.668,0
1711990019.775,85.449,64.941,68.359,65.43,0
1711990019.779,98.633,72.754,66.895,81.543,0
1711990019.783,75.684,63.965,67.871,59.57,0
1711990019.786,125.488,70.312,67.871,42.969,0
1711990019.79,93.75,85.449,68.359,32.227,0
1711990019.794,59.082,87.402,71.289,52.734,0
1711990019.798,72.754,83.984,69.824,55.176,0
1711990019.801,51.758,84.473,67.383,57.129,0
1711990019.805,80.566,85.938,67.871,52.734,0
1711990019.81,99.609,78.613,69.824,37.598,0
1711990019.814,91.797,72.266,71.289,50.293,0
1711990019.818,83.496,72.266,75.684,66.895,0
1711990019.822,68.848,76.66,78.125,65.918,0
1711990019.825,96.191,86.914,76.66,40.527,0
1711990019.829,103.516,91.797,78.125,62.012,0
1711990019.833,85.449,88.867,75.684,56.641,0
1711990019.837,95.703,93.262,71.289,36.133,0
1711990019.841,87.891,94.727,68.359,46.387,0
1711990019.844,72.266,85.449,67.871,51.758,0
1711990019.848,68.848,79.59,65.43,53.711,0
1711990019.852,78.613,83.008,62.988,50.781,0
1711990019.857,91.309,92.285,56.152,48.828,0
1711990019.861,61.035,84.961,50.781,16.113,0
1711990019.865,51.758,75.684,61.523,44.434,0
1711990019.869,58.105,79.59,66.406,34.18,0
1711990019.873,58.105,81.055,55.664,-1.953,0
1711990019.876,81.543,85.938,53.223,11.23,0
1711990019.88,60.059,88.867,56.641,13.672,0
1711990019.884,62.5,85.938,49.316,32.227,0
1711990019.888,102.539,80.566,50.781,12.695,0
1711990019.892,46.387,69.824,60.059,-6.836,0
1711990019.895,3.906,60.059,53.711,2.441,0
1711990019.899,27.344,62.988,37.109,0,0
1711990019.905,33.203,75.195,23.438,-15.625,0
1711990019.908,25.879,79.59,9.277,-16.113,0
1711990019.912,57.617,79.59,-5.371,0,0
1711990019.916,62.5,92.773,-26.855,-39.551,0
1711990019.92,5.371,105.469,-54.688,-56.641,0
1711990019.924,-9.277,107.91,-72.266,-46.875,0
1711990019.927,-16.113,106.445,-78.613,-68.848,0
1711990019.931,-11.719,104.98,-84.961,-63.965,0
1711990019.935,-63.965,110.84,-89.844,-91.309,0
1711990019.939,-80.078,107.422,-97.168,-57.129,0
1711990019.942,-11.719,102.051,-99.609,-66.895,0
1711990019.946,20.508,107.422,-95.703,-130.859,0
1711990019.952,10.742,104.98,-96.68,-104.492,0
1711990019.955,-0.488,99.609,-91.309,-63.477,0
1711990019.959,1.953,104.492,-82.031,-69.824,0
1711990019.963,19.043,100.586,-67.871,-75.195,0
1711990019.967,56.152,99.609,-41.992,-50.293,0
1711990019.971,51.758,117.676,-29.785,-40.039,0
1711990019.974,30.273,122.07,-36.133,-42.48,0
1711990019.978,30.762,116.211,-39.062,-45.898,0
1711990019.982,39.062,112.305,-37.598,-15.625,0
1711990019.986,55.176,107.422,-29.297,18.066,0
1711990019.99,51.27,96.68,-18.555,-5.859,0
1711990019.993,58.594,83.008,-21.973,-36.621,0
1711990019.999,60.547,84.473,-23.926,-37.598,0
1711990020.002,44.434,87.891,-16.113,-0.488,0
1711990020.006,48.34,83.496,-15.625,23.926,0
1711990020.01,52.734,81.055,-25.879,-19.531,0
1711990020.014,75.195,75.195,-20.996,-31.738,0
1711990020.018,80.078,62.012,-2.441,-11.719,0
1711990020.021,36.621,58.594,3.906,-17.09,0
1711990020.025,32.227,53.711,0.977,-22.461,0
1711990020.029,57.129,50.293,-4.883,-15.625,0
1711990020.033,50.781,41.992,-0.977,-6.348,0
1711990020.036,42.969,30.273,6.836,-0.488,0
1711990020.04,59.082,41.016,7.812,0,0
1711990020.045,55.664,40.039,9.277,7.812,0
1711990020.049,17.578,17.578,6.836,19.531,0
1711990020.053,31.738,4.883,4.883,11.719,0
1711990020.057,17.578,15.137,7.812,7.812,0
1711990020.061,9.766,41.504,11.23,-4.395,0
1711990020.064,41.016,49.316,16.602,-9.277,0
1711990020.068,51.27,45.41,15.625,19.531,0
1711990020.072,49.805,41.016,11.23,16.113,0
1711990020.076,21.973,35.645,14.648,11.23,0
1711990020.08,28.809,36.621,13.184,20.996,0
1711990020.083,39.551,27.832,11.23,16.113,0
1711990020.087,41.016,20.508,10.254,-15.137,0
1711990020.092,65.918,31.738,3.418,-28.809,0
1711990020.096,71.289,35.156,7.812,-12.695,0
1711990020.1,53.711,27.344,11.719,-2.441,0
1711990020.104,50.293,18.555,16.602,2.441,0
1711990020.107,64.453,11.23,18.066,-4.883,0
1711990020.111,20.02,9.766,8.301,-18.066,0
1711990020.115,26.855,8.301,1.953,-2.441,0
1711990020.119,52.246,9.277,-2.441,6.348,0
1711990020.123,-9.277,16.602,-2.93,-14.648,0
1711990020.126,-11.23,13.672,-9.766,-23.438,0
1711990020.13,20.996,9.277,-13.184,2.93,0
1711990020.134,30.273,14.16,-11.23,3.906,0
1711990020.139,20.508,16.113,-12.695,-9.277,0
1711990020.143,19.043,13.672,-14.648,-7.324,0
1711990020.146,27.344,6.348,-14.648,-14.648,0
1711990020.15,43.945,2.93,-15.625,-18.066,0
1711990020.154,19.531,0.488,-18.066,-5.371,0
1711990020.158,7.812,-11.23,-16.113,-3.906,0
1711990020.162,16.602,-4.883,-21.973,-13.672,0
1711990020.166,14.648,5.371,-31.738,-3.906,0
1711990020.169,39.551,3.906,-32.715,-2.441,0
1711990020.173,11.719,9.766,-33.691,7.812,0
1711990020.177,-2.441,10.742,-38.574,-17.578,0
1711990020.181,14.16,14.648,-41.504,-50.781,0
1711990020.186,7.812,10.254,-42.969,-29.785,0
1711990020.189,21.484,1.465,-43.945,-20.02,0
1711990020.193,19.043,1.465,-41.992,-14.16,0
1711990020.197,29.785,-2.441,-41.016,-8.301,0
1711990020.201,20.02,-7.812,-40.039,-8.301,0
1711990020.205,0,-6.836,-41.992,-17.578,0
1711990020.208,-0.488,-5.859,-45.898,-24.414,0
1711990020.212,-2.441,-4.883,-41.992,-21.973,0
1711990020.216,0.977,-3.906,-38.574,-12.695,0
1711990020.22,9.766,-8.789,-39.062,-8.789,0
1711990020.224,40.039,-10.742,-44.434,-22.949,0
1711990020.227,16.602,-11.23,-44.922,-19.531,0
1711990020.233,-3.906,-9.766,-47.852,0,0
1711990020.237,7.324,-10.742,-55.664,-11.23,0
1711990020.24,13.672,-14.16,-57.617,-10.742,0
1711990020.244,18.555,-15.137,-56.152,-7.324,0
1711990020.248,19.043,-16.602,-60.547,-36.621,0
1711990020.252,22.461,-19.043,-64.941,-27.344,0
1711990020.256,-9.766,-20.996,-60.059,-11.23,0
1711990020.259,-10.254,-25.391,-56.152,-37.109,0
1711990020.263,-7.812,-23.438,-53.223,-28.809,0
1711990020.267,-20.996,-25.391,-52.734,-7.812,0
1711990020.271,-7.324,-27.344,-54.199,-17.09,0
1711990020.275,7.324,-23.926,-58.594,-27.344,0
1711990020.28,2.441,-21.973,-62.5,-35.156,0
1711990020.284,-8.789,-25.391,-61.035,-13.672,0
1711990020.287,-15.137,-31.25,-66.406,-7.324,0
1711990020.291,-17.578,-34.668,-68.848,-41.016,0
1711990020.295,-26.855,-35.156,-71.289,-55.176,0
1711990020.299,-20.508,-37.598,-75.195,-55.664,0
1711990020.303,1.465,-32.227,-69.336,-40.039,0
1711990020.306,-8.789,-34.668,-61.035,-25.391,0
1711990020.31,18.066,-42.48,-65.918,-25.879,0
1711990020.314,9.277,-38.574,-69.336,-21.484,0
1711990020.318,-39.551,-40.527,-62.988,-28.809,0
1711990020.322,-4.883,-40.039,-60.059,-14.16,0
1711990020.327,8.789,-38.086,-59.082,-19.043,0
1711990020.331,-5.859,-39.551,-63.477,-30.273,0
1711990020.334,0.488,-41.016,-62.988,-18.066,0
1711990020.338,-14.648,-41.504,-56.152,-21.973,0
1711990020.342,-29.785,-41.504,-55.176,-9.277,0
1711990020.346,-32.715,-40.527,-60.547,-22.461,0
1711990020.35,-15.137,-37.109,-65.43,-44.922,0
1711990020.354,1.465,-36.133,-63.477,-31.25,0
1711990020.357,-24.902,-41.504,-61.523,-26.367,0
1711990020.361,-50.293,-46.875,-62.988,-43.945,0
1711990020.365,-41.504,-44.434,-60.547,-46.875,0
1711990020.369,-28.809,-41.504,-64.453,-49.805,0
1711990020.374,-27.344,-38.574,-66.406,-48.828,0
1711990020.378,-39.062,-44.922,-62.5,-41.992,0
1711990020.381,-30.273,-46.875,-61.523,-45.41,0
1711990020.385,-20.508,-41.992,-63.477,-33.691,0
1711990020.389,-17.578,-40.527,-66.895,-32.227,0
1711990020.393,-12.695,-41.992,-69.336,-57.129,0
1711990020.397,-11.23,-47.363,-68.848,-52.246,0
1711990020.4,-18.066,-51.27,-62.988,-33.203,0
1711990020.404,-43.457,-48.828,-55.664,-30.762,0
1711990020.408,-38.086,-48.828,-61.523,-39.551,0
1711990020.412,-28.809,-45.898,-69.824,-43.945,0
1711990020.416,-26.855,-43.945,-64.941,-38.086,0
1711990020.421,-23.926,-48.828,-63.477,-41.504,0
1711990020.424,-35.156,-50.781,-70.801,-41.992,0
1711990020.428,-37.598,-53.711,-71.289,-47.363,0
1711990020.432,-41.016,-53.223,-71.289,-54.688,0
1711990020.436,-46.387,-55.664,-74.219,-54.199,0
1711990020.44,-41.016,-59.57,-72.754,-53.223,0
1711990020.444,-35.645,-51.27,-67.871,-48.34,0
1711990020.447,-28.809,-47.363,-64.453,-48.828,0
1711990020.451,-24.414,-52.246,-60.059,-44.434,0
1711990020.455,-20.996,-50.781,-56.641,-49.316,0
1711990020.459,-24.902,-50.293,-58.594,-56.152,0
1711990020.463,-41.016,-57.617,-58.105,-52.734,0
1711990020.467,-37.598,-56.641,-55.664,-55.664,0
1711990020.471,-19.531,-54.688,-55.176,-53.711,0
1711990020.475,-25.391,-53.711,-56.641,-52.734,0
1711990020.479,-33.691,-50.293,-57.129,-56.152,0
1711990020.483,-55.176,-55.176,-59.57,-60.547,0
1711990020.487,-63.477,-57.129,-61.035,-50.293,0
1711990020.49,-54.199,-57.129,-61.035,-46.387,0
1711990020.494,-51.27,-56.152,-60.059,-56.641,0
1711990020.498,-48.828,-53.223,-51.758,-52.246,0
1711990020.502,-45.41,-53.223,-48.34,-41.504,0
1711990020.506,-44.434,-48.828,-55.664,-36.621,0
1711990020.509,-43.945,-48.34,-53.711,-24.902,0
1711990020.514,-44.434,-50.293,-52.246,-19.531,0
1711990020.518,-59.082,-47.852,-56.152,-18.066,0
1711990020.522,-54.688,-45.898,-55.664,-27.344,0
1711990020.526,-43.457,-44.922,-54.199,-20.508,0
1711990020.529,-49.805,-43.945,-56.641,-22.461,0
1711990020.533,-44.922,-41.504,-58.594,-18.555,0
1711990020.537,-46.387,-40.527,-56.641,-9.277,0
1711990020.541,-35.156,-40.527,-58.105,-14.648,0
1711990020.545,-25.879,-38.086,-56.641,-25.391,0
1711990020.549,-47.363,-40.039,-49.805,-14.16,0
1711990020.552,-36.133,-41.504,-45.898,6.348,0
1711990020.556,-21.484,-42.48,-47.363,9.277,0
1711990020.561,-34.18,-41.016,-50.293,-0.977,0
1711990020.565,-42.48,-39.062,-52.246,5.859,0
1711990020.568,-38.574,-33.691,-61.035,14.16,0
1711990020.572,-38.574,-30.273,-66.895,-2.441,0
1711990020.576,-37.109,-35.645,-63.965,5.371,0
1711990020.58,-27.344,-32.715,-62.5,27.344,0
1711990020.584,-23.926,-28.809,-61.035,22.949,0
1711990020.588,-27.344,-26.367,-63.477,6.836,0
1711990020.591,-27.344,-26.367,-64.941,16.602,0
1711990020.595,-41.504,-29.297,-68.848,13.672,0
1711990020.599,-51.27,-30.762,-68.359,3.418,0
1711990020.603,-53.223,-26.367,-63.965,5.859,0
1711990020.608,-58.594,-22.461,-63.477,10.254,0
1711990020.612,-47.852,-19.531,-64.941,21.484,0
1711990020.616,-51.758,-18.066,-63.965,10.742,0
1711990020.619,-51.758,-15.625,-61.523,-7.812,0
1711990020.623,-40.039,-11.719,-61.523,3.418,0
1711990020.627,-31.738,-11.719,-57.129,18.555,0
1711990020.631,-29.785,-15.137,-60.059,5.859,0
1711990020.635,-32.227,-12.695,-60.059,-3.418,0
1711990020.639,-29.785,-12.695,-52.246,11.719,0
1711990020.642,-33.691,-16.113,-49.805,22.949,0
1711990020.646,-27.832,-15.625,-47.852,13.184,0
1711990020.65,-11.719,-17.09,-43.945,9.277,0
1711990020.655,-4.883,-12.207,-50.781,20.508,0
1711990020.659,-4.883,-10.254,-50.293,15.625,0
1711990020.663,-8.789,-16.602,-45.898,14.16,0
1711990020.667,-3.418,-18.066,-50.293,17.09,0
1711990020.67,5.859,-20.996,-50.781,26.367,0
1711990020.674,4.883,-23.926,-51.27,36.621,0
1711990020.678,-1.953,-19.531,-54.688,34.18,0
1711990020.682,-7.812,-23.438,-56.152,32.227,0
1711990020.686,9.766,-25.391,-55.176,39.551,0
1711990020.689,20.996,-23.438,-54.199,45.41,0
1711990020.693,10.254,-22.949,-53.223,37.109,0
1711990020.697,4.883,-18.555,-54.199,33.691,0
1711990020.702,14.648,-13.184,-51.758,38.574,0
1711990020.706,19.043,-11.719,-45.41,42.48,0
1711990020.71,21.484,-13.184,-43.945,26.367,0
1711990020.714,21.484,-13.672,-46.387,22.461,0
1711990020.717,4.395,-14.16,-48.828,33.203,0
1711990020.721,-0.488,-18.066,-46.875,41.016,0
1711990020.725,5.371,-19.043,-44.434,40.527,0
1711990020.729,6.836,-19.043,-47.852,28.809,0
1711990020.733,0.488,-19.043,-43.457,40.527,0
1711990020.736,4.883,-13.672,-43.457,40.039,0
1711990020.74,3.906,-16.602,-47.852,32.227,0
1711990020.744,0.977,-24.902,-48.34,41.016,0
1711990020.749,10.254,-25.879,-47.363,45.41,0
1711990020.753,2.441,-27.832,-47.852,43.945,0
1711990020.757,-2.93,-33.203,-46.875,33.691,0
1711990020.761,-12.695,-34.18,-44.922,35.156,0
1711990020.764,-22.461,-30.273,-48.34,39.551,0
1711990020.768,8.301,-34.18,-48.828,24.414,0
1711990020.772,33.691,-33.203,-51.758,16.602,0
1711990020.776,34.668,-28.809,-48.828,34.18,0
1711990020.78,33.691,-33.691,-46.875,35.645,0
1711990020.783,24.414,-34.18,-47.852,20.02,0
1711990020.787,27.832,-40.527,-45.898,15.137,0
1711990020.791,41.016,-40.527,-47.363,21.973,0
1711990020.796,32.227,-33.203,-52.734,17.09,0
1711990020.8,12.207,-39.062,-51.758,3.906,0
1711990020.804,6.836,-47.363,-49.805,-6.348,0
1711990020.807,17.578,-46.875,-55.176,6.348,0
1711990020.811,23.926,-46.875,-59.57,11.23,0
1711990020.815,22.461,-50.293,-60.547,-23.438,0
1711990020.819,24.902,-52.246,-54.688,-14.16,0
1711990020.823,30.273,-51.758,-50.781,1.953,0
1711990020.827,41.016,-45.898,-53.711,1.953,0
1711990020.83,46.387,-43.945,-53.223,6.348,0
1711990020.834,40.039,-44.434,-58.105,9.766,0
1711990020.838,32.227,-45.898,-63.477,16.113,0
1711990020.843,33.691,-46.387,-59.57,17.09,0
1711990020.847,41.992,-43.945,-59.57,17.578,0
1711990020.85,40.527,-44.434,-62.5,14.16,0
1711990020.854,44.922,-43.457,-64.453,8.301,0
1711990020.858,48.34,-37.109,-63.965,6.836,0
1711990020.862,44.434,-38.086,-62.988,14.648,0
1711990020.866,49.805,-40.039,-65.43,17.578,0
1711990020.87,64.941,-39.551,-70.312,5.371,0
1711990020.873,70.312,-38.574,-67.383,2.441,0
1711990020.877,64.941,-38.086,-59.082,8.789,0
1711990020.881,73.242,-36.133,-56.152,17.578,0
1711990020.885,65.918,-34.668,-55.664,8.789,0
1711990020.889,62.988,-34.18,-47.852,7.812,0
1711990020.893,66.406,-33.203,-44.922,22.949,0
1711990020.897,56.152,-35.156,-45.898,6.836,0
1711990020.901,46.387,-36.133,-46.875,6.836,0
1711990020.905,39.062,-33.203,-47.363,16.602,0
1711990020.909,39.551,-36.621,-40.039,10.742,0
1711990020.912,32.227,-36.133,-38.574,9.277,0
1711990020.916,20.508,-30.273,-38.574,13.672,0
1711990020.92,12.695,-34.18,-39.062,10.742,0
1711990020.924,9.766,-32.715,-38.086,12.207,0
1711990020.928,17.09,-28.32,-36.133,20.996,0
1711990020.932,15.625,-26.367,-37.109,10.742,0
1711990020.937,-1.953,-25.391,-38.574,-0.977,0
1711990020.94,-10.742,-26.855,-37.109,0,0
1711990020.944,-8.789,-31.25,-35.645,-3.418,0
1711990020.948,-8.301,-27.832,-40.527,-7.324,0
1711990020.952,-7.324,-25.879,-40.527,-9.766,0
1711990020.956,-9.277,-28.32,-38.574,-4.395,0
1711990020.96,-8.301,-25.879,-35.156,0,0
1711990020.963,-2.93,-18.555,-28.809,-8.789,0
1711990020.967,-3.906,-18.066,-30.762,-9.766,0
1711990020.971,-7.812,-19.531,-34.668,-7.812,0
1711990020.975,-14.16,-16.602,-28.809,-3.418,0
1711990020.979,-23.926,-19.043,-26.855,-0.488,0
1711990020.984,-32.227,-20.508,-34.18,-15.137,0
1711990020.988,-29.297,-12.695,-37.109,-17.578,0
1711990020.991,-23.438,-10.742,-42.48,-16.113,0
1711990020.995,-26.855,-10.742,-43.457,-24.902,0
1711990020.999,-41.504,-1.953,-60.059,-30.273,0
1711990021.003,-68.848,0.488,-78.613,-43.457,0
1711990021.007,-79.102,11.719,-76.172,-55.664,0
1711990021.011,-75.684,26.367,-77.148,-53.711,0
1711990021.014,-85.938,25.879,-70.801,-62.988,0
1711990021.018,-90.332,33.691,-63.965,-74.707,0
1711990021.022,-94.727,29.297,-60.059,-81.055,0
1711990021.026,-99.121,29.297,-64.941,-84.473,0
1711990021.031,-106.445,38.086,-64.453,-90.332,0
1711990021.035,-113.281,31.25,-55.176,-95.215,0
1711990021.038,-104.492,26.855,-51.27,-91.797,0
1711990021.042,-94.238,28.809,-45.898,-92.773,0
1711990021.046,-95.215,25.391,-43.945,-94.238,0
1711990021.05,-85.938,21.973,-44.434,-86.914,0
1711990021.054,-91.309,20.02,-37.598,-78.125,0
1711990021.058,-92.773,17.09,-37.598,-72.754,0
1711990021.061,-56.641,13.184,-37.109,-57.617,0
1711990021.065,-37.598,9.766,-29.297,-45.41,0
1711990021.069,-37.598,13.184,-19.531,-32.715,0
1711990021.073,-31.25,7.812,-10.254,-17.578,0
1711990021.078,-6.348,2.93,-11.719,-12.695,0
1711990021.082,22.949,9.277,-26.855,-9.277,0
1711990021.085,19.531,9.766,-21.973,1.465,0
1711990021.089,11.23,-2.441,-8.789,15.137,0
1711990021.093,34.18,-13.184,-10.742,42.969,0
1711990021.097,64.941,-6.348,-23.438,58.594,0
1711990021.101,82.52,-3.906,-27.832,62.988,0
1711990021.105,100.586,-17.09,-16.113,84.961,0
1711990021.108,122.559,-24.414,-19.531,109.863,0
1711990021.112,131.348,-21.973,-31.25,124.512,0
1711990021.116,138.184,-26.855,-24.902,122.07,0
1711990021.12,160.156,-36.133,-17.578,129.883,0
1711990021.125,175.781,-32.227,-21.484,142.578,0
1711990021.129,170.898,-26.855,-32.227,141.113,0
1711990021.133,160.645,-37.109,-29.297,143.066,0
1711990021.137,162.598,-45.41,-28.32,145.996,0
1711990021.14,173.828,-44.434,-35.156,143.555,0
1711990021.144,173.34,-40.527,-34.668,138.672,0
1711990021.148,161.621,-41.504,-35.645,133.789,0
1711990021.152,156.738,-47.852,-27.344,133.301,0
1711990021.156,154.785,-50.293,-27.832,125,0
1711990021.16,162.109,-51.758,-31.25,128.906,0
1711990021.163,162.598,-50.293,-24.414,132.324,0
1711990021.167,153.809,-43.457,-20.996,120.117,0
1711990021.172,146.973,-41.504,-20.508,102.051,0
1711990021.176,134.766,-44.434,-21.484,100.098,0
1711990021.18,134.277,-42.48,-20.02,106.934,0
1711990021.184,141.602,-44.434,-17.578,97.168,0
1711990021.188,133.789,-45.898,-12.207,83.496,0
1711990021.192,132.324,-45.41,-9.277,80.566,0
1711990021.195,131.348,-43.945,-7.812,83.984,0
1711990021.199,125,-40.039,-6.836,79.102,0
1711990021.203,118.652,-38.086,-5.371,74.707,0
1711990021.207,106.445,-42.969,-1.465,80.078,0
1711990021.211,98.633,-44.434,-0.977,70.312,0
1711990021.215,91.309,-38.086,1.953,72.266,0
1711990021.22,94.238,-33.203,2.93,74.219,0
1711990021.223,86.426,-37.109,-4.395,52.246,0
1711990021.227,68.848,-38.086,-10.254,40.527,0
1711990021.231,75.684,-37.598,-13.672,38.086,0
1711990021.235,80.566,-35.156,-12.207,34.668,0
1711990021.239,75.684,-37.109,-14.648,28.32,0
1711990021.243,75.195,-36.621,-21.973,29.785,0
1711990021.246,75.684,-32.227,-28.809,35.156,0
1711990021.25,72.754,-32.227,-30.762,18.066,0
1711990021.254,64.941,-36.133,-29.297,8.301,0
1711990021.258,65.918,-34.668,-28.809,13.672,0
1711990021.262,72.754,-30.762,-30.273,20.508,0
1711990021.267,64.941,-30.273,-24.902,21.484,0
1711990021.271,62.988,-33.203,-22.949,18.066,0
1711990021.274,63.477,-32.715,-23.438,30.273,0
1711990021.278,61.523,-31.25,-22.949,40.039,0
1711990021.282,66.406,-33.203,-23.438,29.297,0
1711990021.286,76.172,-34.18,-28.809,22.949,0
1711990021.29,81.543,-32.715,-24.414,34.668,0
1711990021.294,80.078,-33.203,-16.113,47.363,0
1711990021.297,77.637,-36.621,-17.578,43.457,0
1711990021.301,80.078,-36.621,-20.508,43.945,0
1711990021.305,72.266,-35.645,-22.461,44.922,0
1711990021.309,62.988,-31.25,-20.996,40.527,0
1711990021.314,60.547,-30.762,-20.996,43.457,0
1711990021.318,56.641,-32.227,-21.973,38.574,0
1711990021.322,64.453,-30.273,-18.066,38.574,0
1711990021.325,66.406,-32.227,-13.184,38.086,0
1711990021.329,58.105,-28.32,-13.672,32.715,0
1711990021.333,53.223,-27.832,-16.113,39.551,0
1711990021.337,49.316,-29.297,-18.066,33.203,0
1711990021.341,49.316,-29.297,-18.555,29.297,0
1711990021.345,41.504,-30.273,-19.531,9.277,0
1711990021.348,36.621,-26.855,-19.043,8.301,0
1711990021.352,38.574,-25.879,-20.508,29.297,0
1711990021.356,38.086,-28.32,-25.391,25.879,0
1711990021.361,41.992,-27.832,-23.438,20.996,0
1711990021.365,44.434,-26.855,-18.555,9.277,0
1711990021.369,37.109,-23.926,-15.625,10.254,0
1711990021.372,31.25,-20.996,-17.578,10.742,0
1711990021.376,31.25,-21.484,-19.531,4.883,0
1711990021.38,30.273,-24.902,-19.043,8.301,0
1711990021.384,24.414,-23.926,-16.602,14.648,0
1711990021.388,21.484,-21.973,-14.648,2.441,0
1711990021.392,24.414,-19.531,-7.812,-6.348,0
1711990021.395,27.344,-19.531,-3.418,-2.93,0
1711990021.399,30.273,-20.996,-5.859,1.465,0
1711990021.403,40.527,-16.113,-3.418,0.488,0
1711990021.408,38.574,-12.695,-1.953,-0.977,0
1711990021.412,26.367,-13.672,-4.395,-7.812,0
1711990021.416,21.484,-12.207,-3.418,-13.672,0
1711990021.419,21.973,-10.742,-2.441,-13.184,0
1711990021.423,18.555,-10.742,-6.836,-19.043,0
1711990021.427,11.23,-11.719,-11.23,-23.926,0
1711990021.431,3.906,-16.113,-14.16,-14.16,0
1711990021.435,-0.977,-11.719,-14.16,-1.953,0
1711990021.439,-1.953,-9.277,-12.207,-23.926,0
1711990021.442,2.441,-12.695,-8.301,-37.598,0
1711990021.446,4.395,-12.207,-7.812,-32.715,0
1711990021.45,-1.465,-19.043,-13.184,-42.48,0
1711990021.455,0.488,-20.996,-13.672,-30.273,0
1711990021.459,-3.418,-19.531,-8.789,-16.602,0
1711990021.463,-22.461,-24.902,-1.953,-41.504,0
1711990021.466,-50.781,-24.902,-11.719,-82.031,0
1711990021.47,-89.844,-22.461,-19.043,-106.934,0
1711990021.474,-117.188,-25.391,-9.766,-127.441,0
1711990021.478,-134.277,-25.391,-6.836,-140.137,0
1711990021.482,-149.902,-21.484,-5.371,-159.668,0
1711990021.486,-169.434,-19.043,-6.836,-182.617,0
1711990021.489,-201.172,-23.438,-10.254,-200.684,0
1711990021.493,-200.684,-30.762,-3.906,-201.172,0
1711990021.497,-202.148,-22.461,1.953,-208.496,0
1711990021.502,-214.355,-8.789,-4.395,-225.098,0
1711990021.506,-200.684,-6.836,-9.766,-212.402,0
1711990021.51,-219.727,-4.883,-12.695,-208.984,0
1711990021.514,-226.074,-7.324,-14.16,-208.984,0
1711990021.518,-216.309,-7.324,-17.09,-216.309,0
1711990021.521,-214.355,-5.859,-21.973,-228.027,0
1711990021.525,-189.941,-6.836,-24.902,-205.078,0
1711990021.529,-164.062,-11.23,-26.367,-177.734,0
1711990021.533,-149.414,-22.461,-25.879,-158.203,0
1711990021.537,-146.484,-26.855,-30.273,-160.645,0
1711990021.541,-128.418,-23.926,-32.227,-147.949,0
1711990021.544,-108.398,-24.902,-32.715,-113.281,0
1711990021.549,-103.516,-27.832,-33.691,-106.934,0
1711990021.553,-92.285,-30.762,-36.133,-105.957,0
1711990021.557,-78.125,-33.691,-35.645,-88.867,0
1711990021.561,-69.824,-30.273,-38.574,-80.566,0
1711990021.565,-45.898,-25.391,-37.598,-72.266,0
1711990021.569,-38.086,-23.926,-36.133,-65.43,0
1711990021.572,-47.852,-26.855,-41.992,-60.547,0
1711990021.576,-39.551,-29.297,-39.551,-51.758,0
1711990021.58,-26.367,-32.715,-36.133,-40.527,0
1711990021.584,-20.02,-34.668,-47.363,-30.273,0
1711990021.588,-27.832,-36.621,-50.781,-36.133,0
1711990021.592,-31.738,-35.156,-46.387,-32.715,0
1711990021.597,-19.043,-34.668,-47.363,-28.32,0
1711990021.6,-11.23,-30.273,-46.387,-24.414,0
1711990021.604,-11.719,-30.762,-47.363,-11.719,0
1711990021.608,-12.695,-31.738,-45.41,-15.625,0
1711990021.612,-8.789,-28.32,-42.48,-12.695,0
1711990021.616,-4.883,-28.809,-44.922,-10.254,0
1711990021.62,0.977,-26.367,-45.41,-9.766,0
1711990021.623,16.113,-26.367,-43.457,-3.418,0
1711990021.627,20.02,-29.297,-40.527,-0.977,0
1711990021.631,13.672,-32.227,-37.598,-4.883,0
1711990021.635,10.254,-33.203,-37.109,-9.766,0
1711990021.639,14.648,-34.18,-39.551,-12.207,0
1711990021.644,19.531,-34.668,-41.992,-11.719,0
1711990021.648,20.508,-36.133,-39.062,-4.883,0
1711990021.651,18.555,-36.133,-38.086,-3.906,0
1711990021.655,-1.465,-39.551,-44.922,-11.719,0
1711990021.659,1.465,-47.852,-48.828,-8.301,0
1711990021.663,7.324,-45.898,-41.016,3.418,0
1711990021.667,7.324,-45.41,-40.039,-4.395,0
1711990021.671,2.93,-44.922,-43.457,-10.254,0
1711990021.674,-3.418,-38.574,-43.945,-13.184,0
1711990021.678,-2.441,-39.551,-43.945,-26.367,0
1711990021.682,3.418,-43.457,-47.852,-19.043,0
1711990021.686,5.859,-44.922,-47.852,-13.672,0
1711990021.691,-5.371,-43.457,-43.945,-23.438,0
1711990021.695,-9.277,-39.551,-40.527,-12.207,0
1711990021.698,-3.418,-40.527,-40.527,-2.441,0
1711990021.702,3.906,-38.086,-41.016,-5.371,0
1711990021.706,6.836,-37.598,-40.039,-4.395,0
1711990021.71,4.395,-45.898,-47.852,-8.301,0
1711990021.714,6.348,-43.457,-51.758,-7.812,0
1711990021.718,-5.859,-42.48,-56.641,-3.418,0
1711990021.721,-5.371,-44.922,-60.547,-6.348,0
1711990021.725,-6.348,-45.898,-64.453,-13.184,0
1711990021.729,-10.742,-46.875,-66.406,-10.254,0
1711990021.733,-5.859,-48.34,-69.824,2.93,0
1711990021.738,-6.836,-49.805,-71.777,-1.953,0
1711990021.742,-9.766,-48.828,-71.289,-9.277,0
1711990021.745,-4.395,-50.293,-70.801,-0.977,0
1711990021.749,-5.859,-53.223,-68.359,-0.977,0
1711990021.753,-8.301,-49.805,-66.895,-5.859,0
1711990021.757,-5.859,-47.852,-63.965,-7.812,0
1711990021.761,-6.348,-48.828,-62.012,-11.719,0
1711990021.765,4.883,-48.828,-62.5,-0.488,0
1711990021.768,6.836,-45.41,-61.523,-2.93,0
1711990021.772,-9.766,-44.922,-56.641,-22.949,0
1711990021.776,-16.113,-45.41,-58.594,-22.461,0
1711990021.78,-7.812,-45.898,-60.059,-11.23,0
1711990021.785,2.441,-47.852,-59.57,-10.254,0
1711990021.789,-2.93,-45.41,-52.734,-8.789,0
1711990021.792,-17.578,-40.527,-50.293,-7.812,0
1711990021.796,-18.066,-42.969,-51.27,-17.578,0
1711990021.8,-17.578,-41.504,-43.945,-22.949,0
1711990021.804,-16.602,-35.156,-40.527,-19.043,0
1711990021.808,-18.066,-32.227,-41.992,-26.367,0
1711990021.812,-20.996,-33.203,-41.992,-30.273,0
1711990021.815,-26.367,-29.297,-49.316,-35.156,0
1711990021.819,-44.434,-27.832,-56.641,-48.34,0
1711990021.823,-50.293,-27.344,-49.316,-51.27,0
1711990021.827,-48.828,-13.184,-48.828,-54.688,0
1711990021.832,-59.57,-7.812,-49.805,-64.941,0
1711990021.835,-64.453,-6.348,-47.852,-65.43,0
1711990021.839,-72.266,-0.977,-44.434,-69.824,0
1711990021.843,-101.074,0.977,-39.062,-110.84,0
1711990021.847,-127.93,6.348,-34.668,-141.602,0
1711990021.851,-141.602,15.137,-33.203,-140.137,0
1711990021.855,-158.691,18.555,-31.738,-151.367,0
1711990021.858,-180.176,17.09,-38.086,-175.293,0
1711990021.862,-174.316,7.812,-46.387,-177.246,0
1711990021.866,-161.133,7.812,-42.969,-171.387,0
1711990021.87,-168.457,12.695,-39.551,-173.828,0
1711990021.874,-162.109,10.742,-42.969,-166.016,0
1711990021.879,-151.367,4.883,-50.293,-156.738,0
1711990021.883,-137.695,0.488,-50.293,-147.461,0
1711990021.887,-119.141,0,-45.898,-131.348,0
1711990021.89,-117.188,-7.324,-47.852,-119.141,0
1711990021.894,-99.121,-10.254,-52.246,-118.164,0
1711990021.898,-71.289,-8.301,-51.27,-92.285,0
1711990021.902,-58.594,-10.254,-47.363,-75.195,0
1711990021.906,-48.34,-15.137,-48.34,-74.219,0
1711990021.91,-41.992,-13.184,-49.316,-69.336,0
1711990021.913,-55.176,-15.625,-56.152,-60.547,0
1711990021.917,-53.223,-22.949,-60.059,-54.688,0
1711990021.921,-53.711,-21.973,-63.477,-75.684,0
1711990021.926,-54.688,-22.949,-53.711,-69.824,0
1711990021.93,-48.828,-19.531,-47.363,-57.129,0
1711990021.934,-57.617,-5.371,-48.34,-71.777,0
1711990021.938,-71.289,-1.465,-43.945,-87.891,0
1711990021.941,-86.426,-2.441,-38.574,-91.309,0
1711990021.945,-74.219,0.488,-33.691,-97.656,0
1711990021.949,-79.102,3.906,-38.086,-120.117,0
1711990021.953,-84.961,4.883,-36.621,-106.934,0
1711990021.957,-97.168,8.789,-28.809,-125.488,0
1711990021.961,-106.934,13.184,-31.738,-145.996,0
1711990021.964,-92.285,12.695,-27.344,-126.953,0
1711990021.968,-107.422,5.859,-17.578,-125.977,0
1711990021.973,-122.07,-2.93,-12.207,-140.137,0
1711990021.977,-118.164,-5.859,-16.602,-119.629,0
1711990021.981,-92.285,1.465,-22.461,-99.609,0
1711990021.985,-98.633,-1.465,-18.555,-86.426,0
1711990021.989,-64.453,-5.371,-24.414,-43.457,0
1711990021.992,-24.414,-9.766,-26.855,-40.527,0
1711990021.996,-106.934,-17.578,-20.996,-84.961,0
1711990022,-70.801,-15.137,-23.438,-55.176,0
1711990022.004,3.418,-17.09,-23.926,29.785,0
1711990022.008,-25.879,-23.438,-26.367,7.812,0
1711990022.012,-17.578,-28.809,-30.273,-32.227,0
1711990022.015,-25.879,-31.738,-35.156,51.758,0
1711990022.02,-9.277,-36.621,-39.551,91.309,0
1711990022.024,31.738,-44.434,-36.621,44.434,0
1711990022.028,36.133,-46.875,-38.574,-17.578,0
1711990022.032,24.414,-47.852,-40.039,-32.715,0
1711990022.036,41.992,-46.387,-43.457,-5.371,0
1711990022.039,67.871,-48.828,-41.992,49.316,0
1711990022.043,73.242,-48.34,-39.551,85.449,0
1711990022.047,65.918,-46.875,-38.086,77.637,0
1711990022.051,71.289,-49.805,-39.062,77.637,0
1711990022.055,86.914,-49.316,-47.363,65.918,0
1711990022.059,83.008,-48.34,-42.48,93.262,0
1711990022.063,78.125,-50.293,-28.809,87.891,0
1711990022.067,93.262,-47.363,-32.227,57.129,0
1711990022.071,132.812,-44.434,-35.156,149.902,0
1711990022.075,119.629,-45.41,-31.738,222.168,0
1711990022.079,106.934,-46.387,-31.25,110.352,0
1711990022.083,104.492,-49.316,-28.32,26.367,0
1711990022.086,100.586,-48.828,-28.809,47.852,0
1711990022.09,78.125,-48.34,-34.668,30.762,0
1711990022.094,62.012,-49.316,-30.273,30.273,0
1711990022.098,79.59,-47.363,-27.344,46.387,0
1711990022.102,88.867,-48.34,-26.855,47.363,0
1711990022.106,90.82,-51.758,-29.785,49.805,0
1711990022.11,75.195,-56.152,-29.785,70.312,0
1711990022.114,64.941,-58.594,-23.438,83.008,0
1711990022.118,73.242,-55.664,-26.367,64.941,0
1711990022.122,83.008,-52.246,-36.133,79.59,0
1711990022.126,88.379,-50.781,-41.504,58.105,0
1711990022.13,69.824,-50.293,-38.574,4.395,0
1711990022.133,67.871,-46.387,-35.156,26.367,0
1711990022.137,32.715,-43.457,-27.832,22.949,0
1711990022.141,19.043,-44.434,-25.391,16.113,0
1711990022.145,79.102,-41.504,-28.32,24.902,0
1711990022.149,71.777,-41.016,-26.855,26.367,0
1711990022.153,55.664,-41.016,-28.809,27.344,0
1711990022.157,72.266,-34.18,-26.367,25.391,0
1711990022.161,73.73,-32.227,-17.578,20.996,0
1711990022.165,64.941,-37.109,-15.137,28.32,0
1711990022.169,58.594,-41.504,-14.16,21.973,0
1711990022.173,46.875,-40.039,-12.695,20.02,0
1711990022.177,39.062,-40.039,-19.043,23.926,0
1711990022.18,30.273,-44.434,-26.855,15.625,0
1711990022.184,29.297,-41.016,-21.973,10.254,0
1711990022.188,44.922,-33.691,-21.484,6.348,0
1711990022.192,42.969,-41.016,-20.02,10.254,0
1711990022.196,20.508,-44.922,-20.996,3.418,0
1711990022.2,3.418,-37.598,-25.391,1.465,0
1711990022.203,34.668,-40.527,-25.391,-1.953,0
1711990022.208,19.531,-47.363,-32.227,-4.883,0
1711990022.212,-30.273,-45.41,-25.391,-1.465,0
1711990022.216,-25.391,-40.527,-20.996,-28.32,0
1711990022.22,-33.203,-49.316,-27.832,-18.066,0
1711990022.223,7.812,-41.992,-39.062,6.348,0
1711990022.227,51.758,-40.039,-42.48,0.488,0
1711990022.231,1.465,-54.688,-29.785,-38.086,0
1711990022.235,0.977,-50.781,-30.273,-30.762,0
1711990022.239,6.348,-41.504,-33.691,-19.043,0
1711990022.243,-27.832,-37.109,-38.574,-29.297,0
1711990022.247,-31.25,-45.41,-30.762,-31.25,0
1711990022.25,-17.578,-39.551,-27.832,-57.129,0
1711990022.255,-9.277,-26.367,-39.062,-41.016,0
1711990022.259,-13.184,-28.809,-35.645,4.395,0
1711990022.263,-27.832,-37.598,-22.949,-12.695,0
1711990022.267,-90.82,-42.969,-27.344,-48.828,0
1711990022.271,-99.121,-49.316,-41.992,-38.086,0
1711990022.274,-27.832,-47.852,-43.945,-24.414,0
1711990022.278,-16.602,-41.016,-44.434,-30.762,0
1711990022.282,-20.508,-46.387,-40.039,-21.973,0
1711990022.286,-13.184,-43.945,-41.992,-24.414,0
1711990022.29,-32.715,-37.109,-41.504,-46.875,0
1711990022.294,-38.574,-38.574,-41.016,-61.523,0
1711990022.298,-26.367,-37.109,-47.363,-44.434,0
1711990022.302,-39.062,-32.715,-46.875,-46.387,0
1711990022.306,-40.527,-29.785,-44.922,-62.988,0
1711990022.31,-54.688,-32.715,-45.41,-53.223,0
1711990022.314,-43.457,-31.738,-42.969,-47.363,0
1711990022.318,-31.738,-26.855,-43.945,-43.945,0
1711990022.322,-37.109,-28.32,-45.41,-42.969,0
1711990022.325,-28.32,-29.297,-39.062,-41.016,0
1711990022.329,-22.949,-24.414,-37.109,-41.016,0
1711990022.333,-27.344,-21.484,-30.762,-37.598,0
1711990022.337,-36.621,-33.691,-30.762,-34.668,0
1711990022.341,-37.109,-28.809,-39.551,-41.992,0
1711990022.345,-27.344,-24.902,-33.691,-41.016,0
1711990022.349,-29.297,-27.832,-24.414,-35.645,0
1711990022.353,-42.48,-26.855,-34.668,-50.781,0
1711990022.357,-39.062,-36.133,-37.109,-42.48,0
1711990022.361,-34.668,-42.48,-34.18,-28.809,0
1711990022.365,-39.551,-38.574,-36.621,-30.273,0
1711990022.369,-25.391,-35.156,-40.527,-34.18,0
1711990022.373,-27.344,-31.25,-41.504,-52.246,0
1711990022.376,-29.785,-31.25,-30.762,-41.992,0
1711990022.38,-35.156,-29.785,-29.297,-27.344,0
1711990022.384,-39.062,-27.832,-27.832,-36.621,0
1711990022.388,-13.672,-30.762,-22.949,-33.203,0
1711990022.392,-20.02,-25.879,-22.461,-33.691,0
1711990022.396,-34.18,-21.973,-23.926,-41.992,0
1711990022.4,-31.25,-20.996,-25.879,-42.48,0
1711990022.404,-30.273,-24.414,-25.879,-41.016,0
1711990022.408,-14.648,-30.762,-27.344,-35.156,0
1711990022.412,-12.207,-28.809,-26.367,-32.227,0
1711990022.416,-20.508,-31.25,-23.926,-38.086,0
1711990022.42,-42.969,-34.18,-24.902,-43.457,0
1711990022.423,-36.133,-34.668,-17.578,-32.227,0
1711990022.427,-11.719,-31.738,-13.672,-15.137,0
1711990022.431,-18.555,-26.367,-14.648,-17.09,0
1711990022.435,-35.645,-18.555,-19.531,-31.25,0
1711990022.439,-21.484,-16.602,-20.02,-21.973,0
1711990022.443,-3.906,-20.02,-15.625,-17.578,0
1711990022.447,-0.977,-13.184,-13.184,-46.387,0
1711990022.451,-8.301,-8.301,-14.648,-54.199,0
1711990022.455,-23.926,-12.695,-12.695,-47.852,0
1711990022.459,-28.32,-20.996,-2.93,-30.273,0
1711990022.463,-25.391,-32.715,-3.906,-13.184,0
1711990022.467,-19.531,-15.625,-9.766,-27.344,0
1711990022.47,-4.395,-1.465,-15.137,-38.574,0
1711990022.474,8.789,-3.418,-23.438,-32.715,0
1711990022.478,-6.348,2.93,-25.391,-32.715,0
1711990022.482,-12.695,4.395,-27.344,-36.621,0
1711990022.486,-5.371,3.906,-33.691,-46.387,0
1711990022.49,-10.742,13.184,-33.203,-32.227,0
1711990022.494,-20.996,19.531,-25.391,-31.25,0
1711990022.498,-21.484,15.625,-16.602,-30.762,0
1711990022.502,-4.883,12.207,-7.324,-21.973,0
1711990022.506,0.488,10.254,-5.859,-25.391,0
1711990022.51,15.137,9.277,-13.672,-16.602,0
1711990022.514,18.066,9.277,-18.555,-20.02,0
1711990022.517,3.418,7.812,-16.602,-23.438,0
1711990022.521,-10.254,3.418,-13.672,-17.578,0
1711990022.525,12.207,4.395,-17.09,-9.766,0
1711990022.529,19.043,0.488,-21.973,-19.531,0
1711990022.533,-12.207,-3.906,-22.461,-38.086,0
1711990022.537,-10.742,6.836,-18.066,-30.762,0
1711990022.541,-1.465,2.441,-14.16,-17.09,0
1711990022.545,-0.488,-6.836,-16.602,-24.414,0
1711990022.549,8.789,-2.441,-19.043,-25.391,0
1711990022.553,-10.254,-4.883,-22.461,-27.832,0
1711990022.557,-26.367,-8.789,-24.902,-41.504,0
1711990022.56,-13.672,-9.766,-23.438,-25.391,0
1711990022.564,-2.441,-9.766,-23.438,-18.066,0
1711990022.568,-13.184,-16.113,-13.672,-34.18,0
1711990022.572,-20.996,-18.555,-12.207,-30.762,0
1711990022.576,-18.066,-14.16,-24.902,-18.555,0
1711990022.58,-20.02,-11.23,-18.066,-23.438,0
1711990022.584,-16.113,-9.766,-11.23,-18.066,0
1711990022.588,8.789,-8.301,-16.113,-0.488,0
1711990022.592,16.113,-9.766,-19.043,-8.789,0
1711990022.596,8.301,-8.789,-16.602,-22.949,0
1711990022.6,-3.418,-4.395,-15.625,-27.344,0
1711990022.603,-4.395,-10.254,-18.066,-12.695,0
1711990022.607,12.207,-11.23,-14.648,-0.977,0
1711990022.611,-5.859,-7.812,-14.16,-16.113,0
1711990022.615,-27.344,-11.719,-16.602,-18.555,0
1711990022.619,-30.273,-14.16,-11.23,-4.395,0
1711990022.623,-22.949,-14.648,-3.906,-0.977,0
1711990022.627,-9.766,-14.16,-3.418,-13.184,0
1711990022.631,-26.367,-16.113,-9.766,-9.766,0
1711990022.635,-27.344,-14.648,-6.836,-5.371,0
1711990022.639,-13.672,-9.766,-9.766,-6.348,0
1711990022.643,-9.766,-12.207,-8.301,-4.395,0
1711990022.647,4.883,-12.695,-2.93,-6.836,0
1711990022.651,-5.859,-14.648,-3.418,-19.531,0
1711990022.654,-4.883,-17.09,-8.789,-20.508,0
1711990022.658,-9.766,-15.137,-20.02,-20.996,0
1711990022.662,-16.113,-17.09,-18.066,-13.184,0
1711990022.666,-7.324,-18.066,-13.672,-8.789,0
1711990022.67,-6.348,-22.461,-16.113,-17.09,0
1711990022.674,-19.043,-22.949,-18.555,-15.137,0
1711990022.678,-23.438,-18.066,-12.695,-16.113,0
1711990022.682,-19.043,-21.973,-12.695,-15.625,0
1711990022.686,-24.902,-27.832,-9.277,1.465,0
1711990022.69,-21.973,-22.949,-5.371,-8.301,0
1711990022.694,-4.395,-17.578,-7.324,-18.066,0
1711990022.698,-12.207,-18.066,-2.441,-20.996,0
1711990022.702,-30.273,-22.949,-1.953,-26.367,0
1711990022.705,-15.137,-23.438,-10.254,-12.695,0
1711990022.709,-3.906,-17.09,-10.254,9.766,0
1711990022.713,-18.066,-19.531,-7.812,4.883,0
1711990022.717,-31.738,-23.438,-10.742,-21.484,0
1711990022.721,-31.25,-24.414,-8.789,-34.18,0
1711990022.726,-14.16,-20.508,-6.348,-18.555,0
1711990022.729,-9.277,-23.926,-10.742,-10.742,0
1711990022.733,-16.602,-25.391,-8.301,-20.02,0
1711990022.737,-24.414,-19.531,-2.93,-23.438,0
1711990022.741,-29.785,-20.508,-0.488,-26.367,0
1711990022.745,-49.316,-23.438,-8.301,-30.273,0
1711990022.749,-52.734,-16.602,-14.648,-31.738,0
1711990022.753,-13.672,-18.066,-13.672,-15.625,0
1711990022.756,0.488,-29.297,-2.93,4.883,0
1711990022.76,-28.809,-28.32,2.93,-13.672,0
1711990022.764,-55.664,-26.855,8.301,-38.574,0
1711990022.768,-35.645,-31.25,15.625,-15.137,0
1711990022.773,-22.461,-35.156,14.648,-6.836,0
1711990022.776,-44.434,-39.062,18.066,-36.133,0
1711990022.78,-54.199,-45.41,24.902,-24.902,0
1711990022.784,-56.152,-48.34,25.879,-26.855,0
1711990022.788,-36.621,-47.363,21.973,-30.762,0
1711990022.792,-25.879,-47.852,15.625,-31.738,0
1711990022.796,-25.391,-39.551,5.371,-13.184,0
1711990022.8,-33.691,-32.715,7.812,-5.859,0
1711990022.803,-49.316,-35.156,17.09,-23.926,0
1711990022.807,-46.875,-32.227,8.301,-23.926,0
1711990022.811,-19.043,-31.738,3.418,-18.066,0
1711990022.815,-11.23,-27.344,6.348,-10.742,0
1711990022.82,-13.672,-28.809,5.371,-5.859,0
1711990022.823,-15.625,-30.273,3.906,-4.395,0
1711990022.827,-15.137,-25.391,9.277,-5.371,0
1711990022.831,-12.695,-17.09,6.348,-23.926,0
1711990022.835,1.953,-21.484,-0.488,-10.254,0
1711990022.839,3.418,-22.461,2.441,9.766,0
1711990022.843,-5.859,-21.973,3.906,6.836,0
1711990022.847,4.395,-20.996,-3.418,4.395,0
1711990022.85,0.977,-25.391,-10.254,2.441,0
1711990022.854,-12.695,-33.691,-8.789,-8.301,0
1711990022.858,-16.602,-30.762,-5.859,-12.695,0
1711990022.862,-20.996,-30.762,-9.277,-0.488,0
1711990022.866,-11.23,-27.832,-13.672,4.883,0
1711990022.87,-15.137,-26.367,-16.602,-6.836,0
1711990022.874,-24.414,-32.227,-19.043,-20.508,0
1711990022.878,-7.812,-28.32,-16.113,-11.719,0
1711990022.882,-19.043,-24.414,-14.648,-1.953,0
1711990022.886,-23.926,-24.414,-8.789,-3.906,0
1711990022.89,-6.348,-22.949,-9.277,-2.93,0
1711990022.893,-2.93,-22.461,-14.16,-0.977,0
1711990022.897,-3.906,-20.508,-19.043,-1.953,0
1711990022.901,-9.277,-19.531,-16.602,-8.301,0
1711990022.905,-3.418,-22.461,-18.066,-10.742,0
1711990022.909,2.441,-25.391,-20.02,2.441,0
1711990022.913,-6.348,-22.461,-19.531,6.836,0
1711990022.917,-8.301,-20.508,-19.531,-2.441,0
1711990022.921,-0.977,-18.555,-21.484,-5.371,0
1711990022.925,6.348,-18.555,-22.949,-0.488,0
1711990022.929,10.254,-17.09,-28.32,-0.488,0
1711990022.933,3.418,-15.625,-28.32,-10.742,0
1711990022.936,6.836,-17.09,-24.414,-4.883,0
1711990022.94,14.16,-15.137,-25.879,13.184,0
1711990022.944,9.277,-14.648,-24.902,2.441,0
1711990022.948,10.742,-16.113,-29.297,-4.395,0
1711990022.952,17.578,-13.184,-33.203,-3.906,0
1711990022.956,10.742,-14.648,-32.227,-4.395,0
1711990022.96,3.418,-16.602,-32.227,2.441,0
1711990022.964,11.23,-12.207,-29.297,1.465,0
1711990022.968,15.137,-11.719,-31.25,-0.488,0
1711990022.972,1.953,-18.066,-34.668,-12.207,0
1711990022.976,-17.578,-19.043,-33.203,-26.855,0
1711990022.979,-27.344,-19.043,-28.809,-16.602,0
1711990022.983,-28.809,-20.02,-25.879,-18.555,0
1711990022.987,-29.785,-17.578,-32.715,-20.508,0
1711990022.991,-42.969,-18.555,-33.691,-18.066,0
1711990022.995,-50.293,-21.973,-29.297,-22.461,0
1711990022.999,-50.293,-19.043,-28.809,-26.367,0
1711990023.003,-61.035,-15.137,-28.32,-17.578,0
1711990023.007,-52.246,-17.09,-23.926,-16.113,0
1711990023.011,-41.016,-21.484,-25.879,-20.996,0
1711990023.015,-42.48,-23.438,-23.926,-18.066,0
1711990023.019,-38.574,-15.625,-18.066,-17.09,0
1711990023.023,-47.363,-13.184,-18.555,-14.16,0
1711990023.027,-30.762,-16.602,-20.996,-8.301,0
1711990023.03,-19.531,-24.902,-21.973,-17.09,0
1711990023.034,-25.879,-27.344,-23.926,-25.879,0
1711990023.038,-27.344,-27.832,-23.438,-26.367,0
1711990023.042,-38.086,-26.367,-24.414,-20.508,0
1711990023.046,-30.762,-22.461,-21.973,-20.02,0
1711990023.05,-16.602,-21.973,-17.578,-17.09,0
1711990023.054,-19.531,-21.484,-15.625,-19.531,0
1711990023.058,-13.672,-22.461,-18.066,-19.043,0
1711990023.062,-26.367,-23.926,-21.484,-23.438,0
1711990023.066,-30.762,-25.391,-20.996,-18.066,0
1711990023.07,-15.137,-26.367,-18.066,-4.395,0
1711990023.074,-12.207,-24.414,-15.625,-14.648,0
1711990023.078,-14.648,-27.832,-20.02,-18.555,0
1711990023.081,-17.09,-24.414,-22.949,-20.508,0
1711990023.085,-11.23,-20.508,-21.484,-20.508,0
1711990023.089,-4.395,-21.484,-26.855,-8.789,0
1711990023.093,-10.742,-21.973,-24.902,-18.555,0
1711990023.097,-7.812,-20.02,-18.555,-22.949,0
1711990023.101,-0.488,-19.531,-21.484,-16.113,0
1711990023.105,0.977,-21.484,-25.879,-5.859,0
1711990023.109,6.348,-20.02,-25.879,3.906,0
1711990023.113,9.766,-15.625,-30.273,-6.836,0
1711990023.117,9.277,-13.672,-29.297,-13.672,0
1711990023.121,-1.465,-16.113,-24.414,-24.902,0
1711990023.125,-8.789,-20.996,-28.32,-30.762,0
1711990023.129,1.953,-22.949,-29.785,-22.461,0
1711990023.132,-0.488,-21.973,-30.762,-14.16,0
1711990023.136,-8.789,-24.414,-27.344,-17.09,0
1711990023.14,-3.418,-24.902,-22.461,-21.973,0
1711990023.144,-3.906,-20.508,-23.438,-25.879,0
1711990023.148,1.465,-24.414,-20.996,-30.273,0
1711990023.152,4.395,-26.367,-21.973,-23.926,0
1711990023.156,5.371,-24.414,-26.367,-27.344,0
1711990023.16,-4.883,-27.344,-22.461,-29.297,0
1711990023.164,-17.09,-30.273,-21.484,-22.949,0
1711990023.168,-5.859,-30.762,-17.578,-16.113,0
1711990023.172,4.395,-27.832,-14.648,-14.648,0
1711990023.176,-12.695,-29.785,-16.602,-12.207,0
1711990023.179,-27.344,-33.691,-16.602,-6.348,0
1711990023.183,-16.602,-35.156,-18.555,-16.602,0
1711990023.187,-12.207,-38.574,-19.531,-29.297,0
1711990023.191,-29.785,-37.598,-21.973,-39.551,0
1711990023.196,-39.551,-35.156,-22.949,-40.039,0
1711990023.2,-33.691,-26.367,-16.602,-37.598,0
1711990023.203,-28.809,-18.555,-11.719,-25.879,0
1711990023.207,-26.367,-17.09,-15.625,-19.531,0
1711990023.211,-20.996,-17.578,-16.602,-18.066,0
1711990023.215,-22.949,-17.578,-13.184,-15.625,0
1711990023.219,-30.762,-16.113,-11.719,-20.02,0
1711990023.223,-38.574,-20.02,-11.23,-24.902,0
1711990023.227,-35.156,-21.973,-11.719,-35.156,0
1711990023.231,-25.879,-21.973,-17.578,-44.922,0
1711990023.234,-35.645,-24.414,-24.414,-43.945,0
1711990023.238,-48.34,-28.809,-22.461,-43.945,0
1711990023.243,-56.152,-30.273,-19.531,-46.387,0
1711990023.247,-51.758,-28.809,-19.043,-38.574,0
1711990023.25,-39.062,-28.809,-21.484,-39.062,0
1711990023.254,-49.316,-27.832,-24.414,-43.945,0
1711990023.258,-55.176,-26.367,-22.461,-42.48,0
1711990023.262,-51.758,-23.926,-20.996,-40.527,0
1711990023.266,-52.734,-23.926,-20.508,-40.527,0
1711990023.27,-48.34,-27.344,-20.996,-44.922,0
1711990023.274,-51.758,-30.762,-22.461,-49.316,0
1711990023.277,-53.711,-24.902,-23.438,-46.875,0
1711990023.281,-51.27,-23.926,-19.043,-41.992,0
1711990023.285,-48.828,-27.344,-18.066,-44.434,0
1711990023.29,-41.504,-19.531,-18.555,-44.922,0
1711990023.294,-40.527,-16.602,-10.742,-42.48,0
1711990023.298,-50.781,-22.461,-9.766,-48.828,0
1711990023.301,-54.199,-22.461,-7.812,-61.035,0
1711990023.305,-53.223,-20.02,-6.348,-59.57,0
1711990023.309,-56.152,-22.461,-11.23,-55.176,0
1711990023.313,-59.082,-32.715,-8.789,-43.457,0
1711990023.317,-63.477,-26.855,0,-38.574,0
1711990023.321,-82.52,-18.555,-3.418,-61.035,0
1711990023.325,-93.75,-18.066,-7.812,-65.918,0
1711990023.328,-91.797,-11.23,-4.395,-66.406,0
1711990023.332,-98.633,-8.301,3.418,-83.008,0
1711990023.337,-112.793,-4.883,6.836,-98.145,0
1711990023.341,-134.766,-3.906,3.906,-112.305,0
1711990023.344,-149.902,-2.93,9.277,-119.141,0
1711990023.348,-150.879,8.301,10.742,-127.441,0
1711990023.352,-163.574,16.602,9.766,-150.391,0
1711990023.356,-190.918,21.973,12.207,-165.527,0
1711990023.36,-202.148,26.367,18.555,-169.434,0
1711990023.364,-221.68,23.438,11.23,-196.777,0
1711990023.368,-229.004,30.273,2.441,-218.262,0
1711990023.371,-227.051,41.504,4.883,-217.773,0
1711990023.375,-239.258,47.363,9.277,-223.145,0
1711990023.379,-256.836,40.527,16.602,-231.934,0
1711990023.384,-259.766,33.691,16.113,-235.84,0
1711990023.388,-244.141,32.227,12.207,-232.422,0
1711990023.392,-240.234,32.227,10.742,-219.238,0
1711990023.395,-239.258,27.344,9.766,-202.148,0
1711990023.399,-221.191,20.508,2.441,-195.801,0
1711990023.403,-204.59,20.02,0.488,-189.453,0
1711990023.407,-178.711,18.066,5.859,-175.781,0
1711990023.411,-151.855,17.578,3.418,-157.227,0
1711990023.415,-139.648,12.207,-0.977,-139.648,0
1711990023.419,-124.512,2.441,-4.883,-119.141,0
1711990023.422,-106.934,0.488,-0.977,-98.145,0
1711990023.426,-83.496,-2.441,1.465,-78.125,0
1711990023.431,-54.688,-5.371,-2.93,-57.129,0
1711990023.435,-39.551,-4.395,-6.836,-47.363,0
1711990023.439,-29.785,-3.418,-9.277,-33.691,0
1711990023.442,-27.832,-7.324,-14.648,-16.602,0
1711990023.446,-14.16,-6.836,-18.555,-5.859,0
1711990023.45,13.184,-4.395,-15.625,5.859,0
1711990023.454,17.09,-5.371,-13.672,12.695,0
1711990023.458,20.996,-8.301,-16.113,17.578,0
1711990023.462,31.25,-13.184,-18.555,34.18,0
1711990023.466,34.18,-13.672,-13.184,45.41,0
1711990023.469,49.316,-10.254,-8.301,47.852,0
1711990023.473,62.012,-10.742,-9.277,59.082,0
1711990023.478,60.059,-13.184,-7.324,65.918,0
1711990023.482,65.918,-16.113,-13.184,63.477,0
1711990023.486,77.637,-17.578,-21.973,62.5,0
1711990023.489,80.078,-19.531,-26.367,64.941,0
1711990023.493,75.684,-25.391,-27.832,61.523,0
1711990023.497,63.965,-27.344,-29.297,55.176,0
1711990023.501,67.383,-27.344,-34.18,51.758,0
1711990023.505,79.102,-32.715,-30.762,65.918,0
1711990023.509,90.332,-32.715,-23.438,93.75,0
1711990023.513,93.75,-30.273,-22.461,88.379,0
1711990023.517,79.59,-35.156,-26.367,70.312,0
1711990023.52,72.266,-32.227,-23.926,69.824,0
1711990023.525,72.754,-29.785,-20.02,69.824,0
1711990023.529,82.52,-26.367,-20.02,81.055,0
1711990023.533,74.219,-26.367,-20.02,82.031,0
1711990023.536,62.988,-32.715,-20.996,74.219,0
1711990023.54,57.129,-33.691,-24.902,58.105,0
1711990023.544,53.711,-34.18,-22.461,55.176,0
1711990023.548,58.594,-35.156,-21.973,58.594,0
1711990023.552,62.988,-37.598,-22.949,47.852,0
1711990023.556,54.688,-39.062,-26.855,43.945,0
1711990023.56,46.387,-35.156,-28.809,36.133,0
1711990023.563,49.316,-30.273,-23.438,36.621,0
1711990023.567,53.223,-31.25,-21.973,41.992,0
1711990023.572,56.152,-33.203,-19.043,42.48,0
1711990023.576,47.363,-31.738,-20.02,39.062,0
1711990023.58,35.645,-35.156,-21.484,34.18,0
1711990023.583,30.762,-36.133,-15.625,39.062,0
1711990023.587,47.852,-32.227,-6.348,46.387,0
1711990023.591,59.57,-33.691,-11.23,45.41,0
1711990023.595,47.852,-39.062,-17.09,38.574,0
1711990023.599,38.086,-40.527,-16.113,39.062,0
1711990023.603,34.668,-37.109,-17.09,46.387,0
1711990023.607,44.922,-32.227,-14.648,47.852,0
1711990023.61,54.688,-32.227,-15.625,49.805,0
1711990023.614,40.527,-35.156,-20.508,41.992,0
1711990023.619,38.574,-33.203,-17.578,47.363,0
1711990023.623,46.387,-27.344,-21.484,41.504,0
1711990023.627,32.715,-24.902,-24.414,17.09,0
1711990023.631,40.527,-24.414,-22.461,19.531,0
1711990023.634,45.898,-24.414,-23.438,31.25,0
1711990023.638,32.227,-29.785,-21.973,22.949,0
1711990023.642,31.738,-30.273,-22.949,12.207,0
1711990023.646,16.602,-26.855,-27.832,13.184,0
1711990023.65,1.465,-25.391,-33.203,5.859,0
1711990023.654,3.906,-25.391,-34.18,5.371,0
1711990023.658,2.93,-26.367,-29.297,10.254,0
1711990023.662,7.324,-25.391,-23.926,12.207,0
1711990023.666,21.484,-20.508,-21.973,10.254,0
1711990023.67,29.785,-16.602,-19.043,9.277,0
1711990023.674,14.16,-18.066,-17.578,6.836,0
1711990023.677,-4.883,-21.973,-19.531,0,0
1711990023.681,2.93,-26.855,-21.973,3.418,0
1711990023.685,0.977,-29.785,-20.996,2.441,0
1711990023.689,-1.953,-25.879,-14.648,-0.977,0
1711990023.693,6.836,-26.367,-8.301,6.348,0
1711990023.697,9.277,-32.715,-15.625,-9.766,0
1711990023.701,5.859,-36.621,-18.066,-13.672,0
1711990023.705,-11.23,-34.668,-20.508,2.93,0
1711990023.708,-9.766,-30.273,-21.484,-9.766,0
1711990023.713,-12.695,-30.762,-19.043,-19.043,0
1711990023.717,-21.484,-30.762,-16.113,-10.254,0
1711990023.72,-13.672,-30.273,-11.719,-7.812,0
1711990023.724,-8.301,-31.25,-15.137,-9.766,0
1711990023.728,12.207,-25.879,-18.555,-6.348,0
1711990023.732,31.25,-23.438,-17.578,-8.301,0
1711990023.736,19.531,-24.414,-16.113,-17.578,0
1711990023.74,3.906,-21.973,-13.184,-16.113,0
1711990023.744,-1.953,-19.043,-12.207,-4.883,0
1711990023.747,-10.254,-20.02,-15.625,-13.184,0
1711990023.751,-5.371,-26.855,-17.09,-24.414,0
1711990023.755,-1.953,-21.973,-15.625,-7.324,0
1711990023.76,-1.953,-17.09,-14.16,-12.695,0
1711990023.764,2.93,-15.625,-15.137,-34.18,0
1711990023.767,-4.883,-15.137,-15.137,-24.902,0
1711990023.771,-1.465,-19.531,-15.625,-17.578,0
1711990023.775,-0.488,-23.438,-15.625,-9.277,0
1711990023.779,-32.227,-26.855,-14.648,-6.348,0
1711990023.783,-40.039,-30.762,-15.625,-22.461,0
1711990023.787,-6.836,-29.785,-19.043,-23.438,0
1711990023.791,7.324,-25.391,-17.578,-15.137,0
1711990023.795,-0.977,-24.902,-17.578,-12.695,0
1711990023.798,-8.789,-21.973,-20.02,-17.578,0
1711990023.802,-14.648,-23.438,-19.043,-20.508,0
1711990023.807,-13.184,-19.043,-16.602,-14.648,0
1711990023.811,0,-16.602,-17.578,-14.16,0
1711990023.815,-5.859,-21.484,-16.113,-29.297,0
1711990023.818,-19.043,-21.973,-17.578,-34.18,0
1711990023.822,-17.09,-20.996,-20.508,-33.691,0
1711990023.826,-21.973,-21.484,-19.043,-25.391,0
1711990023.83,-21.484,-21.484,-18.555,-35.156,0
1711990023.834,-19.531,-17.578,-13.672,-48.34,0
1711990023.838,-27.832,-21.484,-16.113,-38.086,0
1711990023.842,-35.645,-24.414,-17.09,-32.227,0
1711990023.845,-32.715,-18.555,-10.254,-30.273,0
1711990023.849,0,-14.16,-12.207,-11.719,0
1711990023.854,-3.906,-20.02,-14.648,-14.648,0
1711990023.858,-18.555,-20.996,-14.648,-18.066,0
1711990023.862,-9.766,-22.461,-14.16,-15.625,0
1711990023.865,-14.648,-23.438,-9.277,-7.812,0
1711990023.869,-18.555,-25.391,-7.812,-2.441,0
1711990023.873,-18.555,-29.785,-13.672,-29.297,0
1711990023.877,-12.207,-28.809,-17.578,-32.715,0
1711990023.881,2.93,-20.02,-13.184,-12.207,0
1711990023.885,3.418,-21.484,-10.254,-10.254,0
1711990023.889,-7.812,-26.367,-14.648,-26.855,0
1711990023.892,-17.09,-27.832,-20.508,-33.691,0
1711990023.896,-17.09,-31.738,-17.09,-31.25,0
1711990023.901,-15.137,-28.32,-18.066,-31.25,0
1711990023.905,-21.973,-26.367,-16.113,-27.344,0
1711990023.908,-16.602,-26.367,-15.625,-22.461,0
1711990023.912,-10.742,-26.855,-17.578,-23.926,0
1711990023.916,-29.297,-32.227,-17.578,-21.484,0
1711990023.92,-32.715,-30.273,-20.02,-22.949,0
1711990023.924,-24.902,-24.902,-20.996,-22.461,0
1711990023.928,-22.949,-24.902,-26.367,-14.16,0
1711990023.932,-19.043,-20.02,-23.438,-18.066,0
1711990023.936,-17.578,-21.973,-17.578,-30.762,0
1711990023.939,-20.508,-25.391,-22.461,-28.32,0
1711990023.943,-29.297,-24.414,-26.367,-28.809,0
1711990023.948,-28.809,-25.879,-21.973,-21.484,0
1711990023.952,-21.484,-27.832,-25.879,-20.996,0
1711990023.955,-22.461,-26.367,-25.879,-27.832,0
1711990023.959,-28.32,-27.832,-22.949,-20.02,0
1711990023.963,-10.742,-21.484,-28.32,-1.465,0
1711990023.967,-9.766,-22.949,-23.438,-0.977,0
1711990023.971,-32.227,-27.344,-13.672,-21.484,0
1711990023.975,-30.762,-21.484,-10.742,-26.367,0
1711990023.979,-48.828,-14.648,-19.043,-45.898,0
1711990023.982,-54.688,-14.16,-19.531,-64.453,0
1711990023.986,-39.062,-17.09,-14.648,-50.781,0
1711990023.99,-46.387,-17.09,-13.184,-53.711,0
1711990023.995,-58.105,-19.043,-16.602,-50.781,0
1711990023.998,-49.316,-13.672,-20.02,-33.203,0
1711990024.002,-50.293,-9.766,-20.508,-28.32,0
1711990024.006,-46.875,-12.695,-24.902,-34.18,0
1711990024.01,-35.645,-16.602,-22.949,-37.598,0
1711990024.014,-38.574,-23.926,-21.484,-30.273,0
1711990024.018,-41.504,-24.902,-26.367,-30.273,0
1711990024.022,-38.574,-24.414,-24.414,-46.387,0
1711990024.025,-35.645,-24.414,-25.391,-41.504,0
1711990024.029,-32.227,-22.949,-30.762,-44.434,0
1711990024.033,-36.133,-20.508,-28.809,-50.781,0
1711990024.037,-30.762,-19.043,-24.414,-38.574,0
1711990024.041,-23.926,-17.09,-23.438,-34.668,0
1711990024.045,-25.879,-16.602,-25.391,-24.414,0
1711990024.049,-14.648,-22.461,-28.809,-15.625,0
1711990024.053,-15.625,-28.809,-25.391,-36.133,0
1711990024.057,-27.832,-28.32,-26.367,-46.387,0
1711990024.061,-24.902,-21.973,-22.461,-32.715,0
1711990024.065,-32.227,-25.879,-17.578,-15.137,0
1711990024.068,-28.32,-26.855,-21.973,-30.762,0
1711990024.072,-17.09,-25.391,-20.996,-33.203,0
1711990024.076,-34.18,-28.32,-18.066,-29.785,0
1711990024.08,-44.434,-29.785,-19.043,-32.227,0
1711990024.084,-34.668,-27.344,-18.066,-26.367,0
1711990024.088,-21.973,-25.879,-18.555,-21.973,0
1711990024.092,-21.484,-25.879,-22.949,-23.438,0
1711990024.096,-24.902,-27.344,-21.484,-31.738,0
1711990024.1,-13.184,-27.832,-19.531,-25.879,0
1711990024.104,-19.043,-21.484,-20.996,-22.461,0
1711990024.108,-20.508,-22.461,-20.02,-20.996,0
1711990024.111,-16.602,-24.902,-17.578,-0.488,0
1711990024.115,-20.996,-21.484,-17.09,-4.395,0
1711990024.119,-15.137,-22.461,-13.184,-8.301,0
1711990024.123,-12.695,-21.484,-9.766,-7.324,0
1711990024.127,-15.137,-22.461,-16.602,-30.273,0
1711990024.131,-10.254,-24.414,-19.043,-34.18,0
1711990024.135,-15.137,-24.902,-19.043,-40.039,0
1711990024.139,-24.414,-30.273,-19.531,-49.805,0
1711990024.143,-23.438,-30.762,-22.461,-31.738,0
1711990024.147,-18.066,-23.926,-24.414,-24.902,0
1711990024.151,-4.883,-20.996,-24.414,-25.879,0
1711990024.155,1.953,-17.578,-24.902,-9.277,0
1711990024.158,-1.953,-16.113,-21.973,-12.207,0
1711990024.162,-2.93,-14.648,-17.578,-18.555,0
1711990024.166,-10.742,-15.625,-10.742,0,0
1711990024.17,-7.324,-22.949,-12.207,0.977,0
1711990024.174,-6.836,-20.996,-16.602,-13.184,0
1711990024.178,-18.555,-19.043,-16.113,-17.578,0
1711990024.182,-25.391,-22.461,-19.043,-26.367,0
1711990024.186,-13.184,-20.508,-15.625,-24.414,0
1711990024.19,1.953,-20.508,-13.184,-8.301,0
1711990024.194,1.465,-22.949,-19.043,-6.836,0
1711990024.198,-5.859,-20.508,-17.578,-7.324,0
1711990024.202,-8.789,-20.508,-17.09,-4.883,0
1711990024.206,-2.93,-23.438,-23.438,-1.465,0
1711990024.209,3.418,-21.973,-25.879,-13.184,0
1711990024.213,-1.465,-20.508,-22.461,-14.648,0
1711990024.217,-7.324,-20.996,-26.367,-29.297,0
1711990024.221,-11.719,-16.602,-31.738,-36.133,0
1711990024.225,-22.461,-18.066,-26.855,-20.02,0
1711990024.229,-19.531,-20.02,-19.531,-22.461,0
1711990024.233,-20.996,-20.02,-21.484,-31.738,0
1711990024.237,-18.066,-21.973,-26.855,-28.32,0
1711990024.241,-17.09,-23.926,-28.32,-36.133,0
1711990024.245,-38.086,-23.926,-28.809,-29.785,0
1711990024.249,-29.785,-20.02,-28.32,-23.926,0
1711990024.253,-19.531,-20.02,-29.297,-23.438,0
1711990024.256,-31.738,-21.973,-27.832,-30.273,0
1711990024.26,-38.086,-22.461,-24.902,-35.156,0
1711990024.264,-42.969,-18.555,-20.508,-24.902,0
1711990024.268,-41.016,-16.113,-19.043,-26.855,0
1711990024.272,-38.086,-16.602,-14.648,-38.086,0
1711990024.276,-41.504,-20.02,-13.184,-40.527,0
1711990024.28,-41.016,-20.02,-20.02,-28.32,0
1711990024.284,-42.969,-15.625,-21.973,-21.484,0
1711990024.288,-38.574,-16.113,-19.043,-32.227,0
1711990024.292,-24.902,-19.531,-17.578,-26.855,0
1711990024.296,-42.48,-19.531,-18.066,-26.367,0
1711990024.299,-49.805,-12.207,-18.066,-45.898,0
1711990024.303,-52.246,-10.254,-19.531,-42.969,0
1711990024.307,-60.059,-14.648,-23.926,-44.434,0
1711990024.311,-52.246,-21.484,-27.832,-56.152,0
1711990024.315,-52.246,-18.555,-23.438,-44.434,0
1711990024.319,-61.035,-15.137,-19.531,-53.223,0
1711990024.323,-70.312,-16.602,-19.043,-48.828,0
1711990024.327,-78.125,-13.672,-22.949,-54.688,0
1711990024.331,-74.219,-7.324,-22.461,-74.219,0
1711990024.335,-90.82,-2.93,-19.531,-82.52,0
1711990024.339,-115.723,2.441,-23.438,-96.191,0
1711990024.343,-124.023,11.23,-16.113,-107.422,0
1711990024.346,-142.09,5.859,-10.742,-122.559,0
1711990024.35,-142.09,10.254,-12.207,-114.746,0
1711990024.354,-139.16,26.855,-8.301,-123.535,0
1711990024.358,-168.945,34.668,-14.648,-170.41,0
1711990024.362,-190.918,46.387,-15.625,-194.824,0
1711990024.366,-204.102,48.828,-12.207,-195.801,0
1711990024.37,-225.098,47.363,-18.555,-206.543,0
1711990024.374,-220.215,51.758,-15.137,-215.82,0
1711990024.378,-209.961,63.965,-17.578,-232.422,0
1711990024.382,-239.258,66.406,-29.297,-249.512,0
1711990024.386,-240.234,59.57,-23.926,-231.934,0
1711990024.389,-218.262,56.152,-18.555,-219.238,0
1711990024.393,-216.309,50.781,-16.113,-230.469,0
1711990024.397,-224.121,43.945,-9.766,-233.398,0
1711990024.401,-210.449,32.715,-2.441,-206.055,0
1711990024.405,-197.266,21.484,3.906,-174.316,0
1711990024.409,-192.871,20.996,0.488,-176.758,0
1711990024.413,-169.434,20.02,-0.488,-168.457,0
1711990024.417,-158.691,14.16,0.488,-150.879,0
1711990024.421,-147.949,10.254,-2.441,-133.789,0
1711990024.425,-125.977,6.836,-5.859,-122.07,0
1711990024.428,-100.098,0.488,-9.277,-96.68,0
1711990024.432,-78.125,-5.859,-14.648,-81.055,0
1711990024.436,-69.336,-13.672,-16.113,-81.543,0
1711990024.44,-54.199,-15.625,-15.137,-50.781,0
1711990024.444,-50.293,-15.137,-20.508,-47.852,0
1711990024.448,-36.133,-17.578,-21.484,-35.645,0
1711990024.452,-1.465,-19.043,-19.043,-5.859,0
1711990024.456,3.418,-26.855,-24.414,-14.648,0
1711990024.459,6.348,-32.715,-27.344,0.977,0
1711990024.464,20.508,-35.156,-28.809,23.438,0
1711990024.468,35.156,-40.527,-29.785,28.32,0
1711990024.471,52.246,-38.574,-26.367,19.043,0
1711990024.475,51.758,-35.645,-28.32,35.645,0
1711990024.479,53.223,-36.621,-31.738,59.57,0
1711990024.483,61.035,-37.109,-29.785,55.664,0
1711990024.487,61.523,-35.645,-26.855,59.082,0
1711990024.491,74.707,-33.203,-26.367,67.383,0
1711990024.495,84.473,-35.156,-28.809,73.73,0
1711990024.499,81.055,-37.598,-30.762,62.5,0
1711990024.502,74.219,-40.527,-30.762,50.781,0
1711990024.506,77.148,-41.992,-23.926,68.848,0
1711990024.511,95.215,-41.504,-20.508,41.016,0
1711990024.515,88.867,-40.527,-23.438,26.367,0
1711990024.518,77.148,-38.086,-20.508,98.633,0
1711990024.522,69.824,-42.969,-22.949,88.379,0
1711990024.526,65.43,-45.898,-25.879,55.664,0
1711990024.53,85.938,-45.898,-23.438,61.523,0
1711990024.534,86.914,-42.969,-20.996,58.594,0
1711990024.538,60.547,-43.457,-20.996,61.035,0
1711990024.542,64.453,-49.316,-20.508,66.895,0
1711990024.546,65.43,-50.293,-19.531,63.477,0
1711990024.549,68.848,-50.781,-21.484,56.152,0
1711990024.553,77.637,-48.828,-25.879,54.688,0
1711990024.558,64.941,-48.34,-22.949,52.246,0
1711990024.562,53.711,-52.734,-25.391,41.504,0
1711990024.566,42.969,-51.758,-29.297,36.621,0
1711990024.569,46.875,-48.828,-25.879,39.551,0
1711990024.573,63.965,-48.828,-27.832,38.574,0
1711990024.577,53.223,-45.41,-27.344,33.203,0
1711990024.581,33.203,-42.969,-24.902,32.227,0
1711990024.585,38.086,-41.504,-27.832,39.062,0
1711990024.589,43.945,-39.551,-26.855,33.691,0
1711990024.593,39.551,-40.527,-23.438,29.785,0
1711990024.596,40.039,-38.086,-23.438,34.18,0
1711990024.6,35.645,-38.086,-20.996,41.504,0
1711990024.605,34.668,-36.133,-20.508,31.738,0
1711990024.609,41.504,-38.574,-21.973,20.02,0
1711990024.612,42.48,-44.922,-21.484,25.391,0
1711990024.616,38.574,-38.086,-20.02,20.508,0
1711990024.62,29.297,-39.062,-15.625,19.043,0
1711990024.624,12.695,-44.434,-15.625,23.926,0
1711990024.628,16.602,-40.527,-19.043,26.855,0
1711990024.632,27.344,-39.062,-22.461,23.926,0
1711990024.636,28.809,-37.109,-20.996,13.184,0
1711990024.64,18.066,-32.227,-20.02,13.184,0
1711990024.643,10.254,-29.785,-19.531,12.207,0
1711990024.647,12.695,-29.785,-21.973,5.859,0
1711990024.652,20.02,-28.32,-22.949,2.441,0
1711990024.656,14.16,-29.785,-22.461,10.254,0
1711990024.659,8.789,-31.25,-21.973,7.324,0
1711990024.663,4.883,-28.32,-23.438,-10.254,0
1711990024.667,1.465,-27.344,-27.832,-18.066,0
1711990024.671,5.859,-29.297,-28.809,-9.277,0
1711990024.675,6.348,-34.18,-29.785,9.766,0
1711990024.679,-0.977,-35.645,-31.738,-6.836,0
1711990024.683,-4.395,-29.297,-31.738,-24.414,0
1711990024.687,-28.809,-32.227,-31.738,-5.371,0
1711990024.69,-25.879,-31.738,-23.926,14.16,0
1711990024.694,-16.602,-29.785,-20.02,-0.488,0
1711990024.699,-23.926,-31.738,-24.902,-5.859,0
1711990024.702,-17.578,-33.203,-24.902,-5.859,0
1711990024.706,-13.184,-34.668,-21.973,-6.348,0
1711990024.71,-8.301,-33.203,-25.879,-5.371,0
1711990024.714,-10.254,-29.785,-27.344,-8.789,0
1711990024.718,-17.578,-29.785,-26.367,-0.488,0
1711990024.722,-28.32,-32.715,-26.367,-1.465,0
1711990024.726,-31.25,-29.785,-22.949,-7.812,0
1711990024.73,-18.555,-28.809,-18.555,-29.785,0
1711990024.733,-13.184,-30.273,-14.648,-10.742,0
1711990024.737,-33.203,-28.809,-16.113,-18.555,0
1711990024.741,-44.434,-28.809,-21.484,-31.25,0
1711990024.745,-29.297,-30.273,-22.949,-19.043,0
1711990024.749,-18.066,-32.227,-19.531,-25.391,0
1711990024.753,-28.32,-37.109,-18.066,-40.527,0
1711990024.757,-36.133,-35.645,-19.043,-39.551,0
1711990024.761,-35.156,-31.738,-17.09,-37.109,0
1711990024.765,-36.621,-32.227,-13.184,-36.621,0
1711990024.769,-22.461,-31.25,-17.578,-28.809,0
1711990024.773,-20.996,-32.227,-20.996,-24.414,0
1711990024.776,-36.621,-32.227,-17.578,-29.785,0
1711990024.78,-29.785,-29.297,-24.902,-32.227,0
1711990024.784,-23.926,-31.738,-24.902,-10.742,0
1711990024.788,-35.645,-38.086,-13.184,-18.066,0
1711990024.792,-46.875,-41.504,-8.301,-50.781,0
1711990024.796,-48.828,-43.945,-3.906,-48.828,0
1711990024.8,-35.645,-41.504,-0.977,-37.109,0
1711990024.804,-41.504,-42.48,2.441,-33.203,0
1711990024.808,-55.664,-52.246,7.812,-37.109,0
1711990024.812,-46.387,-58.105,9.277,-32.227,0
1711990024.816,-23.926,-55.664,0.977,-29.297,0
1711990024.819,-33.203,-53.223,-1.953,-23.926,0
1711990024.823,-48.828,-50.293,-1.465,-17.09,0
1711990024.827,-41.992,-51.758,-1.465,-32.227,0
1711990024.831,-34.18,-52.246,-0.977,-28.32,0
1711990024.835,-39.551,-48.34,-7.812,-22.949,0
1711990024.839,-32.715,-43.945,-10.254,-20.508,0
1711990024.843,-29.785,-41.504,-6.836,-4.883,0
1711990024.847,-33.203,-42.969,-9.766,-22.949,0
1711990024.851,-23.438,-42.969,-11.719,-31.738,0
1711990024.855,-20.02,-41.016,-10.254,-29.785,0
1711990024.858,-32.715,-38.574,-8.301,-24.902,0
1711990024.862,-39.062,-35.645,-8.301,-23.438,0
1711990024.866,-28.809,-36.621,-10.742,-11.719,0
1711990024.87,-23.926,-41.504,-13.672,-14.648,0
1711990024.874,-31.25,-43.457,-16.113,-32.715,0
1711990024.878,-19.531,-31.738,-15.137,-13.184,0
1711990024.882,-10.254,-28.32,-12.207,-10.254,0
1711990024.886,-30.273,-30.762,-12.207,-21.973,0
1711990024.89,-17.578,-32.715,-10.742,-19.043,0
1711990024.894,-13.672,-34.668,-5.371,-20.02,0
1711990024.898,-31.738,-34.18,-7.812,-22.949,0
1711990024.902,-35.645,-35.156,-13.184,-27.832,0
1711990024.906,-29.297,-28.32,-10.742,-8.301,0
1711990024.909,-24.414,-22.461,-10.254,-8.789,0
1711990024.913,-20.02,-23.438,-8.789,-19.043,0
1711990024.917,-21.973,-23.438,-8.301,-17.578,0
1711990024.921,-31.25,-24.902,-9.766,-17.578,0
1711990024.925,-28.32,-24.414,-12.207,-12.207,0
1711990024.929,-20.02,-18.555,-14.16,-13.672,0
1711990024.933,-18.555,-21.484,-9.766,-6.836,0
1711990024.937,-19.531,-21.973,-8.301,35.156,0
1711990024.941,-14.16,-13.184,-6.348,0.977,0
1711990024.945,-12.207,-13.672,-7.324,-23.926,0
1711990024.949,-5.371,-17.578,-8.301,-16.602,0
1711990024.953,-9.766,-22.949,-7.324,-12.207,0
1711990024.956,-28.809,-24.414,-6.348,-8.301,0
1711990024.96,-48.34,-22.461,-5.859,-10.742,0
1711990024.964,-49.805,-22.461,-8.301,-13.184,0
1711990024.968,-24.902,-19.043,-8.301,-9.277,0
1711990024.972,-10.254,-18.555,-8.301,-14.648,0
1711990024.976,-22.949,-22.461,-5.859,-33.691,0
1711990024.98,-36.133,-25.391,-9.277,-31.738,0
1711990024.984,-41.992,-22.949,-7.324,-22.461,0
1711990024.988,-21.484,-21.484,-5.371,-16.602,0
1711990024.992,-8.301,-25.391,-12.695,-13.672,0
1711990024.996,-9.766,-23.438,-14.16,-18.555,0
1711990025,-13.672,-19.531,-6.836,-20.508,0
1711990025.003,-23.438,-19.043,-8.301,-11.23,0
1711990025.007,-22.949,-20.508,-12.695,0.977,0
1711990025.011,-16.113,-23.438,-16.113,-4.883,0
1711990025.015,-20.508,-15.625,-21.973,-12.695,0
1711990025.019,-34.18,-17.09,-16.602,-41.992,0
1711990025.023,-31.738,-25.391,-17.09,-42.969,0
1711990025.027,-32.227,-24.902,-20.508,-26.367,0
1711990025.031,-33.203,-23.438,-20.996,-23.926,0
1711990025.035,-21.484,-24.414,-22.461,-34.18,0
1711990025.039,-20.02,-29.785,-21.484,-37.598,0
1711990025.043,-20.996,-29.297,-19.043,-15.137,0
1711990025.046,-26.367,-28.32,-19.043,-27.832,0
1711990025.05,-18.066,-29.297,-18.555,-37.598,0
1711990025.054,-13.672,-31.738,-18.555,-26.855,0
1711990025.058,-35.645,-34.18,-25.391,-29.785,0
1711990025.062,-35.156,-32.227,-28.32,-26.367,0
1711990025.066,-25.391,-28.32,-28.32,-32.227,0
1711990025.07,-20.508,-24.902,-27.832,-44.922,0
1711990025.074,-18.555,-23.438,-30.762,-39.062,0
1711990025.078,-32.227,-25.879,-31.25,-34.18,0
1711990025.082,-37.598,-26.855,-28.809,-24.902,0
1711990025.086,-29.297,-27.344,-22.461,-24.902,0
1711990025.089,-27.344,-26.855,-21.973,-50.781,0
1711990025.093,-25.879,-23.926,-23.438,-47.852,0
1711990025.097,-36.621,-25.391,-20.02,-34.18,0
1711990025.101,-41.504,-33.203,-20.996,-31.25,0
1711990025.105,-22.949,-36.133,-16.602,-16.113,0
1711990025.109,-11.23,-29.297,-15.625,-13.672,0
1711990025.113,-24.902,-12.207,-25.391,-35.645,0
1711990025.117,-31.738,-5.371,-33.691,-49.805,0
1711990025.121,-31.738,-13.184,-32.715,-54.688,0
1711990025.125,-42.48,-10.254,-32.227,-41.992,0
1711990025.129,-38.086,-5.371,-32.227,-36.621,0
1711990025.132,-30.273,-4.883,-31.738,-54.199,0
1711990025.136,-31.738,-2.93,-32.715,-46.875,0
1711990025.14,-31.25,-2.441,-28.32,-45.41,0
1711990025.144,-32.715,-7.812,-21.484,-44.434,0
1711990025.148,-29.297,-6.348,-22.461,-37.109,0
1711990025.152,-20.508,-5.371,-25.391,-39.551,0
1711990025.156,-30.273,-8.789,-23.438,-39.551,0
1711990025.16,-25.391,-9.277,-21.973,-34.18,0
1711990025.163,-9.277,-6.348,-16.113,-23.926,0
1711990025.168,-22.949,-8.301,-15.625,-28.32,0
1711990025.172,-27.344,-7.324,-13.184,-32.715,0
1711990025.175,-23.438,-12.695,-10.742,-36.621,0
1711990025.179,-29.785,-23.438,-13.672,-40.039,0
1711990025.183,-31.738,-18.066,-20.02,-23.926,0
1711990025.187,-28.32,-12.207,-23.438,-4.395,0
1711990025.191,-30.273,-8.789,-24.902,-14.648,0
1711990025.195,-24.414,-5.371,-22.949,-18.066,0
1711990025.199,-18.555,-5.859,-17.09,-28.32,0
1711990025.203,-24.902,-8.301,-17.578,-37.598,0
1711990025.206,-33.691,-10.254,-16.113,-28.809,0
1711990025.21,-35.645,-9.766,-15.625,-23.926,0
1711990025.215,-25.391,-11.23,-19.043,-31.25,0
1711990025.218,-20.996,-11.23,-23.438,-32.715,0
1711990025.222,-32.227,-10.254,-25.391,-22.461,0
1711990025.226,-36.133,-15.137,-25.391,-35.645,0
1711990025.23,-25.391,-17.09,-23.438,-38.086,0
1711990025.234,-21.484,-17.578,-18.555,-15.625,0
1711990025.238,-26.367,-20.996,-17.09,-21.484,0
1711990025.242,-34.18,-20.996,-19.531,-25.879,0
1711990025.246,-37.109,-19.531,-22.461,-17.578,0
1711990025.249,-33.203,-20.508,-25.391,4.395,0
1711990025.253,-27.832,-25.879,-28.809,-6.348,0
1711990025.257,-37.109,-24.902,-31.25,-25.879,0
1711990025.262,-47.363,-24.414,-32.715,-21.484,0
1711990025.265,-44.922,-30.273,-35.645,-28.809,0
1711990025.269,-40.527,-32.715,-38.086,-32.227,0
1711990025.273,-41.016,-35.156,-38.086,-40.527,0
1711990025.277,-43.457,-29.297,-29.785,-22.949,0
1711990025.281,-33.691,-22.949,-20.996,8.789,0
1711990025.285,-20.508,-25.879,-24.902,-7.812,0
1711990025.289,-20.02,-27.832,-26.367,-25.879,0
1711990025.293,-28.809,-28.32,-24.902,-30.273,0
1711990025.296,-33.203,-31.25,-27.344,-32.227,0
1711990025.3,-38.086,-28.809,-26.855,-33.691,0
1711990025.304,-38.086,-31.25,-27.832,-26.855,0
1711990025.309,-35.645,-39.551,-32.227,-15.625,0
1711990025.312,-32.227,-36.621,-29.785,0.488,0
1711990025.316,-37.109,-37.109,-25.879,-6.348,0
1711990025.32,-36.621,-39.551,-25.879,-16.113,0
1711990025.324,-23.438,-36.133,-21.484,-27.832,0
1711990025.328,-22.949,-31.25,-19.043,-35.645,0
1711990025.332,-16.602,-31.738,-19.043,-28.32,0
1711990025.336,-24.902,-30.762,-18.555,-22.461,0
1711990025.34,-39.062,-29.297,-15.137,-12.207,0
1711990025.343,-31.738,-32.715,-16.602,-18.555,0
1711990025.347,-24.902,-29.785,-18.555,-15.137,0
1711990025.351,-20.02,-30.762,-18.555,-26.855,0
1711990025.355,-34.18,-34.18,-14.648,-23.926,0
1711990025.359,-44.922,-36.621,-18.066,-17.09,0
1711990025.363,-35.156,-34.18,-20.996,-22.461,0
1711990025.367,-40.039,-30.273,-20.508,-7.812,0
1711990025.371,-45.41,-33.203,-25.879,-16.602,0
1711990025.375,-45.898,-37.109,-24.902,-39.551,0
1711990025.379,-58.105,-37.598,-23.926,-48.34,0
1711990025.383,-49.316,-36.621,-25.391,-39.062,0
1711990025.386,-43.457,-32.227,-27.344,-24.414,0
1711990025.39,-36.621,-28.32,-25.879,-17.09,0
1711990025.394,-28.809,-29.297,-15.625,-28.809,0
1711990025.398,-45.41,-28.809,-16.602,-38.086,0
1711990025.402,-59.082,-28.809,-21.973,-37.598,0
1711990025.406,-54.688,-25.879,-12.695,-30.762,0
1711990025.41,-39.551,-21.973,-9.277,-22.949,0
1711990025.414,-44.434,-22.949,-11.23,-38.574,0
1711990025.418,-51.27,-29.785,-15.625,-34.668,0
1711990025.422,-29.297,-31.25,-21.484,-39.551,0
1711990025.426,-29.785,-27.344,-20.508,-43.945,0
1711990025.43,-39.062,-30.273,-25.879,-28.809,0
1711990025.433,-47.363,-31.25,-29.297,-37.109,0
1711990025.437,-34.668,-25.391,-29.297,-41.016,0
1711990025.441,-32.227,-30.273,-33.203,-38.574,0
1711990025.445,-53.711,-31.25,-37.598,-43.945,0
1711990025.449,-55.664,-25.391,-37.109,-47.852,0
1711990025.453,-36.621,-28.32,-30.762,-50.781,0
1711990025.457,-31.25,-31.738,-25.391,-31.738,0
1711990025.461,-50.293,-32.715,-22.461,-40.527,0
1711990025.465,-47.363,-29.297,-21.484,-51.758,0
1711990025.469,-42.48,-26.367,-23.438,-45.41,0
1711990025.473,-30.762,-34.18,-22.461,-40.039,0
1711990025.476,-23.438,-38.086,-21.484,-32.227,0
1711990025.48,-42.48,-33.691,-23.438,-45.898,0
1711990025.484,-42.48,-35.156,-24.414,-56.152,0
1711990025.488,-41.016,-31.25,-20.508,-46.875,0
1711990025.492,-32.715,-29.297,-19.043,-25.879,0
1711990025.496,-12.207,-32.715,-18.066,-24.414,0
1711990025.5,-32.715,-33.203,-18.066,-42.969,0
1711990025.504,-36.133,-32.715,-24.902,-42.48,0
1711990025.508,-23.438,-27.832,-28.809,-37.109,0
1711990025.512,-23.438,-29.785,-32.227,-47.363,0
1711990025.516,-38.086,-34.18,-30.273,-55.176,0
1711990025.519,-47.852,-39.551,-26.855,-41.992,0
1711990025.523,-41.992,-40.527,-24.902,-33.203,0
1711990025.527,-38.086,-39.551,-26.855,-42.969,0
1711990025.531,-28.809,-34.18,-28.809,-46.875,0
1711990025.535,-34.668,-32.227,-30.762,-44.434,0
1711990025.539,-42.969,-35.645,-32.227,-41.016,0
1711990025.543,-30.273,-33.691,-27.344,-32.715,0
1711990025.547,-32.715,-37.109,-27.344,-34.18,0
1711990025.551,-23.926,-44.434,-29.297,-25.879,0
1711990025.555,-18.066,-44.922,-25.879,-21.484,0
1711990025.559,-19.531,-40.527,-29.297,-34.668,0
1711990025.562,-16.113,-41.016,-33.691,-24.902,0
1711990025.566,-31.738,-41.016,-31.738,-16.113,0
1711990025.57,-32.715,-39.062,-28.32,-12.207,0
1711990025.574,-25.391,-37.598,-23.438,-21.484,0
1711990025.578,-35.156,-34.18,-21.973,-23.926,0
1711990025.582,-31.738,-35.645,-26.855,-35.156,0
1711990025.586,-38.574,-38.086,-27.832,-40.527,0
1711990025.59,-38.086,-39.062,-23.926,-15.137,0
1711990025.594,-16.602,-38.574,-21.484,-20.996,0
1711990025.598,-14.648,-40.527,-27.344,-33.203,0
1711990025.601,-41.016,-40.039,-35.156,-21.973,0
1711990025.605,-38.574,-36.621,-33.691,-32.227,0
1711990025.609,-22.949,-36.621,-25.879,-35.645,0
1711990025.613,-29.785,-39.551,-28.809,-15.625,0
1711990025.617,-38.574,-40.039,-32.715,-35.645,0
1711990025.621,-50.781,-40.527,-31.738,-51.27,0
1711990025.625,-38.574,-40.039,-28.809,-33.203,0
1711990025.629,-30.762,-37.109,-28.32,-26.367,0
1711990025.632,-30.273,-33.203,-30.273,-32.227,0
1711990025.637,-35.156,-37.598,-28.809,-30.273,0
1711990025.641,-47.852,-40.527,-30.273,-28.32,0
1711990025.645,-45.898,-34.668,-31.25,-33.203,0
1711990025.648,-43.945,-32.227,-30.273,-41.016,0
1711990025.652,-29.785,-33.203,-33.691,-48.828,0
1711990025.656,-48.34,-33.203,-36.133,-39.062,0
1711990025.66,-66.895,-38.086,-35.645,-36.621,0
1711990025.664,-51.758,-37.109,-35.645,-34.668,0
1711990025.668,-40.039,-32.715,-26.855,-31.738,0
1711990025.672,-37.109,-34.668,-23.926,-39.062,0
1711990025.676,-41.504,-33.691,-29.785,-44.434,0
1711990025.68,-54.688,-28.809,-29.297,-44.434,0
1711990025.684,-77.148,-25.391,-24.902,-61.523,0
1711990025.688,-75.684,-22.461,-27.832,-53.711,0
1711990025.692,-65.918,-18.066,-28.32,-55.176,0
1711990025.695,-88.867,-18.555,-28.809,-98.145,0
1711990025.699,-99.121,-15.625,-30.273,-105.469,0
1711990025.703,-88.379,-6.836,-26.855,-94.238,0
1711990025.707,-101.074,2.441,-25.391,-89.844,0
1711990025.711,-113.77,3.906,-27.832,-108.887,0
1711990025.715,-126.953,7.812,-24.902,-118.164,0
1711990025.719,-138.184,12.207,-23.438,-118.164,0
1711990025.723,-155.273,3.418,-20.996,-134.277,0
1711990025.727,-163.574,5.859,-18.066,-134.277,0
1711990025.731,-152.832,21.973,-23.926,-148.926,0
1711990025.735,-163.086,23.926,-27.344,-170.898,0
1711990025.739,-172.363,26.855,-18.555,-159.18,0
1711990025.742,-182.617,35.645,-13.672,-149.902,0
1711990025.746,-204.59,32.227,-15.137,-175.781,0
1711990025.75,-199.219,28.32,-13.184,-186.523,0
1711990025.754,-198.73,25.879,-14.648,-186.523,0
1711990025.758,-201.66,24.902,-14.648,-186.035,0
1711990025.762,-199.219,22.949,-9.766,-180.176,0
1711990025.766,-192.871,13.184,-5.371,-165.039,0
1711990025.77,-174.316,9.766,-7.812,-168.457,0
1711990025.773,-172.363,9.766,-6.836,-172.363,0
1711990025.778,-163.574,4.395,-5.859,-164.062,0
1711990025.782,-156.738,-0.488,-8.789,-144.531,0
1711990025.785,-157.227,-5.859,-7.324,-133.301,0
1711990025.789,-141.113,-11.719,-10.254,-134.766,0
1711990025.793,-104.004,-13.672,-12.695,-116.211,0
1711990025.797,-96.68,-17.578,-13.184,-103.027,0
1711990025.801,-114.746,-27.344,-15.625,-112.793,0
1711990025.805,-99.609,-31.25,-13.184,-90.332,0
1711990025.809,-72.266,-30.273,-11.23,-70.801,0
1711990025.813,-61.035,-27.344,-15.137,-40.527,0
1711990025.817,-54.688,-33.691,-15.625,-42.48,0
1711990025.82,-33.203,-44.434,-17.578,-38.574,0
1711990025.825,-18.555,-44.434,-18.066,10.742,0
1711990025.829,2.441,-42.48,-17.09,2.93,0
1711990025.832,15.137,-46.875,-23.438,1.953,0
1711990025.836,7.812,-53.711,-28.32,1.465,0
1711990025.84,7.324,-53.711,-26.367,-17.09,0
1711990025.844,10.742,-54.199,-24.414,4.395,0
1711990025.848,9.277,-52.734,-23.926,11.719,0
1711990025.852,28.32,-54.199,-24.902,16.113,0
1711990025.856,29.785,-58.594,-23.438,31.25,0
1711990025.86,12.695,-56.641,-20.02,23.438,0
1711990025.863,25.879,-51.758,-19.043,29.785,0
1711990025.867,28.809,-49.316,-15.137,35.156,0
1711990025.872,17.09,-54.688,-14.16,17.578,0
1711990025.875,19.043,-57.129,-19.531,22.949,0
1711990025.879,23.438,-59.082,-20.996,28.32,0
1711990025.883,22.949,-59.082,-23.926,30.273,0
1711990025.887,19.531,-55.176,-21.484,47.363,0
1711990025.891,45.41,-55.176,-20.508,33.691,0
1711990025.895,24.902,-64.453,-20.02,20.02,0
1711990025.899,-6.348,-58.105,-16.602,44.434,0
1711990025.903,17.09,-46.387,-18.555,40.527,0
1711990025.906,31.25,-46.387,-14.648,39.551,0
1711990025.91,30.273,-46.387,-16.602,39.551,0
1711990025.914,38.086,-47.363,-24.414,29.785,0
1711990025.918,31.738,-47.852,-25.391,27.344,0
1711990025.922,-8.301,-52.734,-23.438,22.949,0
1711990025.926,-4.883,-54.199,-24.414,39.551,0
1711990025.93,24.414,-50.781,-22.949,24.414,0
1711990025.934,18.555,-53.223,-19.531,18.555,0
1711990025.938,0.488,-57.129,-20.508,34.18,0
1711990025.942,-8.301,-56.641,-25.879,23.438,0
1711990025.945,-7.812,-55.664,-26.367,9.766,0
1711990025.949,-1.953,-53.711,-28.32,8.789,0
1711990025.953,3.906,-51.27,-30.273,22.461,0
1711990025.957,-4.883,-50.293,-27.344,34.668,0
1711990025.961,0,-49.805,-25.391,37.109,0
1711990025.965,-0.488,-47.363,-24.414,6.348,0
1711990025.969,3.418,-47.363,-22.461,19.531,0
1711990025.973,28.809,-46.875,-19.531,29.297,0
1711990025.977,26.855,-48.34,-17.578,2.93,0
1711990025.981,-4.395,-54.199,-19.043,4.395,0
1711990025.985,-25.879,-52.246,-18.066,21.973,0
1711990025.988,-3.418,-50.293,-17.578,19.531,0
1711990025.992,22.949,-49.805,-15.625,19.531,0
1711990025.996,-3.906,-45.898,-17.578,36.621,0
1711990026,-13.672,-46.387,-20.02,36.133,0
1711990026.004,-7.812,-51.27,-17.578,28.809,0
1711990026.008,-12.695,-47.852,-13.672,23.926,0
1711990026.012,-3.906,-43.457,-15.137,-5.371,0
1711990026.016,-6.348,-46.387,-11.719,13.184,0
1711990026.02,-29.297,-50.781,-14.648,29.297,0
1711990026.024,-11.719,-47.363,-16.113,-20.508,0
1711990026.028,11.23,-46.875,-11.23,-22.461,0
1711990026.032,9.277,-47.363,-6.348,-10.254,0
1711990026.035,0.977,-42.969,-3.906,-27.344,0
1711990026.039,-10.254,-41.504,-6.836,-9.277,0
1711990026.043,-7.324,-37.109,-8.301,11.23,0
1711990026.047,-19.531,-37.598,-14.16,11.719,0
1711990026.051,5.371,-36.621,-11.23,18.066,0
1711990026.055,19.531,-34.18,-8.789,-7.812,0
1711990026.059,-5.859,-40.527,-12.695,-26.855,0
1711990026.063,-16.113,-45.898,-15.625,-3.906,0
1711990026.067,-24.902,-40.527,-19.043,-0.488,0
1711990026.071,-23.438,-40.527,-23.926,-15.625,0
1711990026.075,-8.301,-40.527,-25.879,-12.695,0
1711990026.079,3.906,-34.18,-21.484,-2.93,0
1711990026.082,-13.672,-30.762,-21.973,-3.418,0
1711990026.086,-22.949,-30.273,-23.926,-23.926,0
1711990026.09,-20.996,-32.227,-25.879,-19.043,0
1711990026.094,-31.738,-37.109,-29.785,-34.668,0
1711990026.098,-28.32,-37.109,-30.273,-37.598,0
1711990026.102,-34.668,-37.598,-28.32,-31.738,0
1711990026.106,-29.785,-41.016,-31.25,-30.762,0
1711990026.11,-23.438,-41.504,-32.715,-9.766,0
1711990026.114,-6.348,-38.086,-31.738,-10.742,0
1711990026.118,9.277,-35.156,-33.691,-18.555,0
1711990026.122,-14.16,-33.203,-37.598,-25.391,0
1711990026.126,-19.043,-31.738,-41.504,-22.949,0
1711990026.129,-0.488,-29.785,-39.551,-33.691,0
1711990026.133,-27.344,-35.156,-34.18,-37.109,0
1711990026.137,-40.527,-39.062,-33.203,-16.113,0
1711990026.141,-36.133,-35.645,-27.832,-36.621,0
1711990026.145,-41.504,-36.621,-22.949,-24.902,0
1711990026.149,-41.016,-29.297,-28.32,-2.93,0
1711990026.153,-36.133,-24.414,-30.762,-23.438,0
1711990026.157,-28.809,-27.832,-28.809,-27.832,0
1711990026.161,-6.836,-32.227,-32.227,-25.879,0
1711990026.165,0.488,-33.691,-35.156,-31.738,0
1711990026.169,-41.504,-28.32,-34.668,-42.48,0
1711990026.172,-42.48,-30.273,-27.832,-39.062,0
1711990026.176,-15.625,-30.273,-25.879,-38.086,0
1711990026.18,-18.066,-28.809,-26.367,-36.621,0
1711990026.184,-19.531,-26.855,-24.902,-15.137,0
1711990026.188,-12.207,-27.344,-23.926,2.93,0
1711990026.192,-17.09,-28.809,-23.438,-18.066,0
1711990026.196,-20.996,-28.809,-26.855,-21.484,0
1711990026.2,-26.855,-25.391,-30.762,-29.297,0
1711990026.204,-27.344,-27.832,-29.297,-28.32,0
1711990026.208,-29.785,-32.227,-20.996,-26.855,0
1711990026.212,-31.25,-33.691,-21.973,-29.297,0
1711990026.215,-11.719,-32.715,-25.391,-29.785,0
1711990026.219,-5.371,-35.156,-31.25,-36.133,0
1711990026.223,-29.297,-33.203,-30.273,-33.203,0
1711990026.227,-31.25,-28.32,-28.32,-23.926,0
1711990026.231,-8.789,-22.461,-30.762,-24.414,0
1711990026.235,-6.348,-21.973,-29.297,-39.062,0
1711990026.239,-20.996,-25.391,-24.902,-40.039,0
1711990026.243,-33.691,-23.926,-23.926,-32.715,0
1711990026.247,-26.855,-21.484,-23.438,-9.277,0
1711990026.251,-29.297,-20.996,-20.996,-36.621,0
1711990026.255,-27.344,-21.484,-23.926,-52.246,0
1711990026.258,-19.531,-20.508,-25.879,-35.156,0
1711990026.262,-26.367,-29.297,-22.949,-23.926,0
1711990026.266,-19.531,-37.598,-21.484,-11.719,0
1711990026.27,-16.113,-29.785,-29.785,-19.531,0
1711990026.274,-18.555,-21.973,-29.297,-40.527,0
1711990026.278,-15.625,-15.625,-36.133,-30.762,0
1711990026.282,-33.691,-14.16,-47.363,-62.5,0
1711990026.286,-34.18,-12.695,-47.363,-78.125,0
1711990026.289,-32.715,-3.418,-48.34,-62.012,0
1711990026.294,-44.922,-3.418,-51.758,-51.758,0
1711990026.298,-58.105,-2.441,-57.129,-58.594,0
1711990026.301,-65.43,-1.465,-62.012,-87.402,0
1711990026.305,-47.363,-2.93,-57.129,-72.266,0
1711990026.309,-24.902,-2.93,-55.664,-49.316,0
1711990026.313,-31.25,-4.395,-57.129,-64.941,0
1711990026.317,-43.457,-2.441,-56.641,-63.477,0
1711990026.321,-26.855,-3.418,-52.246,-57.129,0
1711990026.325,-28.32,-1.465,-49.805,-60.059,0
1711990026.329,-60.059,-2.93,-51.27,-24.414,0
1711990026.332,-52.246,-8.789,-42.48,-29.297,0
1711990026.336,-26.367,-6.836,-40.039,-45.898,0
1711990026.34,-34.18,-15.137,-41.992,-25.391,0
1711990026.344,-44.434,-18.066,-45.41,-47.363,0
1711990026.348,-48.828,-19.043,-47.852,-49.316,0
1711990026.352,-40.039,-18.555,-41.504,-21.484,0
1711990026.356,-18.066,-14.16,-37.109,-19.531,0
1711990026.36,-17.09,-20.02,-37.109,-20.508,0
1711990026.364,-36.133,-21.484,-39.062,-27.832,0
1711990026.368,-38.086,-20.02,-35.156,-26.855,0
1711990026.371,-47.363,-18.555,-34.18,-48.828,0
1711990026.375,-74.219,-22.461,-40.039,-45.898,0
1711990026.379,-63.477,-29.785,-38.086,-43.457,0
1711990026.383,-49.805,-28.32,-36.621,-50.781,0
1711990026.387,-62.988,-27.832,-38.574,-18.066,0
1711990026.391,-54.199,-26.367,-37.598,-28.32,0
1711990026.395,-35.156,-23.438,-37.598,-46.875,0
1711990026.399,-34.668,-26.855,-35.156,-20.996,0
1711990026.403,-25.879,-31.738,-33.203,-12.207,0
1711990026.407,-16.602,-32.715,-33.691,-10.742,0
1711990026.411,-22.461,-32.227,-27.344,-10.254,0
1711990026.415,-48.828,-31.738,-24.414,-31.738,0
1711990026.418,-54.199,-31.738,-26.367,-12.207,0
1711990026.422,-56.641,-31.25,-25.879,-4.883,0
1711990026.426,-32.227,-29.297,-25.391,-34.668,0
1711990026.43,-10.742,-30.273,-21.484,-15.625,0
1711990026.434,-16.602,-30.762,-19.043,-5.371,0
1711990026.438,-23.926,-28.809,-21.484,-23.438,0
1711990026.442,-36.621,-31.25,-19.043,-23.438,0
1711990026.446,-41.504,-36.133,-20.02,-34.668,0
1711990026.45,-60.547,-36.621,-22.949,-34.668,0
1711990026.454,-39.062,-33.203,-21.484,-24.902,0
1711990026.458,-49.805,-39.551,-23.926,-57.617,0
1711990026.462,-67.871,-36.133,-20.996,-52.246,0
1711990026.465,-45.898,-33.203,-22.461,-49.805,0
1711990026.469,-62.012,-38.086,-26.855,-53.223,0
1711990026.473,-46.875,-42.48,-21.484,-35.645,0
1711990026.477,-22.949,-39.062,-17.578,-17.09,0
1711990026.481,-21.973,-37.109,-13.184,-11.23,0
1711990026.485,-54.688,-40.039,-14.648,-48.828,0
1711990026.489,-54.199,-37.109,-23.926,-41.504,0
1711990026.493,-37.598,-38.086,-20.996,-19.531,0
1711990026.497,-57.129,-39.062,-11.719,-36.621,0
1711990026.501,-53.711,-40.039,-13.672,-41.504,0
1711990026.505,-57.129,-36.133,-18.555,-39.551,0
1711990026.509,-45.898,-31.738,-19.043,-4.395,0
1711990026.512,-17.578,-31.25,-19.531,4.395,0
1711990026.516,-17.578,-32.227,-18.066,-24.414,0
1711990026.52,-43.457,-45.41,-11.719,2.93,0
1711990026.524,-22.949,-54.688,-7.324,11.23,0
1711990026.528,-22.949,-40.039,-17.09,-10.742,0
1711990026.532,2.441,-22.461,-26.367,19.531,0
1711990026.536,11.23,-28.809,-20.996,28.809,0
1711990026.54,-7.324,-38.574,-11.23,48.828,0
1711990026.544,3.418,-37.109,-13.184,79.102,0
1711990026.548,21.973,-40.527,-12.207,63.477,0
1711990026.552,41.504,-41.504,-11.23,55.664,0
1711990026.555,57.617,-38.574,-17.578,61.035,0
1711990026.559,57.129,-34.18,-20.02,78.125,0
1711990026.563,46.875,-32.227,-16.113,76.66,0
1711990026.567,59.082,-37.598,-8.789,89.844,0
1711990026.571,86.914,-36.621,-11.719,98.633,0
1711990026.575,111.328,-37.598,-12.695,99.609,0
1711990026.579,94.727,-43.457,-11.23,98.145,0
1711990026.583,70.801,-37.598,-16.602,71.289,0
1711990026.587,76.66,-32.227,-11.23,88.379,0
1711990026.591,80.566,-30.273,-7.812,76.172,0
1711990026.595,71.289,-35.645,-12.695,48.828,0
1711990026.598,67.383,-35.645,-12.207,44.434,0
1711990026.602,71.289,-37.598,-11.23,52.734,0
1711990026.606,47.852,-39.551,-14.648,71.777,0
1711990026.61,41.016,-35.156,-11.719,82.52,0
1711990026.614,56.152,-30.762,-2.93,44.434,0
1711990026.618,45.898,-29.785,-14.16,33.203,0
1711990026.622,39.551,-33.203,-20.508,24.414,0
1711990026.626,19.043,-32.227,-20.996,29.297,0
1711990026.63,19.043,-33.691,-22.949,21.484,0
1711990026.634,41.016,-33.691,-24.414,2.93,0
1711990026.638,36.133,-32.715,-26.367,8.789,0
1711990026.641,32.227,-27.344,-21.973,13.184,0
1711990026.645,1.953,-23.926,-23.926,-0.977,0
1711990026.649,0.488,-30.762,-28.809,14.16,0
1711990026.653,29.297,-28.32,-24.902,6.836,0
1711990026.657,-2.441,-24.902,-28.809,10.254,0
1711990026.661,-18.555,-30.762,-34.668,27.832,0
1711990026.665,7.324,-36.133,-30.762,-7.812,0
1711990026.669,13.184,-39.062,-27.344,-4.395,0
1711990026.673,9.766,-36.621,-28.32,9.277,0
1711990026.677,-0.977,-30.762,-29.297,3.906,0
1711990026.681,-9.277,-25.879,-24.414,-10.254,0
1711990026.684,-17.09,-29.297,-25.879,-13.672,0
1711990026.688,-26.367,-35.156,-29.297,-9.766,0
1711990026.692,-22.949,-30.762,-28.809,5.859,0
1711990026.696,-17.578,-24.414,-28.809,2.93,0
1711990026.7,-0.977,-26.367,-29.785,-23.438,0
1711990026.704,6.836,-31.738,-27.832,-23.438,0
1711990026.708,-19.531,-31.25,-28.32,-30.762,0
1711990026.712,-16.602,-30.273,-25.391,-29.785,0
1711990026.716,-9.766,-35.645,-24.902,-23.926,0
1711990026.72,-21.484,-41.016,-30.273,-24.414,0
1711990026.723,-35.156,-41.504,-32.227,-28.809,0
1711990026.727,-35.156,-38.574,-28.32,-17.578,0
1711990026.731,-25.879,-37.598,-28.809,-18.555,0
1711990026.735,-24.414,-41.016,-31.25,-27.344,0
1711990026.739,-29.297,-42.48,-31.738,-31.25,0
1711990026.743,-13.184,-38.574,-31.25,-40.527,0
1711990026.747,-12.695,-40.527,-29.785,-4.395,0
1711990026.751,-26.855,-43.457,-27.344,-11.719,0
1711990026.755,-11.719,-39.551,-29.785,-39.551,0
1711990026.758,-12.207,-37.598,-26.855,-15.625,0
1711990026.763,-16.602,-38.086,-25.879,-25.391,0
1711990026.767,-18.066,-37.109,-25.391,-4.395,0
1711990026.77,-8.789,-31.738,-21.973,12.695,0
1711990026.774,-19.043,-30.273,-20.02,-9.277,0
1711990026.778,-29.785,-27.832,-20.996,-14.648,0
1711990026.782,-20.508,-23.926,-18.066,-23.926,0
1711990026.786,-29.297,-31.25,-20.996,-31.25,0
1711990026.79,-20.02,-36.133,-34.18,-30.762,0
1711990026.794,-19.531,-35.645,-31.25,1.465,0
1711990026.798,-62.988,-39.551,-20.508,-23.438,0
1711990026.802,-76.172,-36.621,-21.484,-78.613,0
1711990026.805,-83.984,-23.438,-23.438,-88.867,0
1711990026.81,-106.934,-16.602,-17.578,-113.77,0
1711990026.814,-127.441,-24.902,-12.207,-116.699,0
1711990026.817,-143.066,-26.367,-13.672,-145.02,0
1711990026.821,-174.805,-25.391,-18.066,-178.223,0
1711990026.825,-215.332,-26.855,-16.113,-194.824,0
1711990026.829,-219.727,-30.762,-13.672,-205.566,0
1711990026.833,-200.684,-31.738,-14.16,-172.852,0
1711990026.837,-214.355,-24.414,-19.531,-210.449,0
1711990026.841,-233.887,-18.555,-26.367,-243.164,0
1711990026.845,-215.82,-20.02,-25.879,-231.934,0
1711990026.848,-208.496,-25.879,-22.949,-227.539,0
1711990026.852,-192.871,-28.32,-26.367,-193.848,0
1711990026.857,-173.34,-32.227,-34.18,-169.922,0
1711990026.86,-139.648,-31.738,-32.227,-153.809,0
1711990026.864,-157.227,-36.133,-26.855,-148.926,0
1711990026.868,-166.016,-38.574,-31.738,-99.121,0
1711990026.872,-124.512,-40.039,-33.691,-116.211,0
1711990026.876,-111.328,-41.504,-30.273,-129.395,0
1711990026.88,-115.234,-40.039,-28.809,-94.727,0
1711990026.884,-107.422,-39.062,-35.156,-97.168,0
1711990026.888,-83.496,-42.48,-35.156,-77.148,0
1711990026.892,-72.754,-41.504,-28.809,-67.871,0
1711990026.895,-68.359,-32.715,-31.738,-67.871,0
1711990026.899,-62.012,-32.715,-31.25,-61.523,0
1711990026.904,-68.359,-36.133,-31.25,-67.871,0
1711990026.907,-76.66,-41.992,-38.086,-62.988,0
1711990026.911,-73.242,-46.387,-41.016,-58.594,0
1711990026.915,-65.918,-41.504,-36.621,-62.988,0
1711990026.919,-58.594,-43.945,-36.621,-52.246,0
1711990026.923,-65.43,-49.316,-32.227,-26.855,0
1711990026.927,-63.965,-44.922,-29.297,-38.574,0
1711990026.931,-53.711,-43.457,-37.598,-53.711,0
1711990026.935,-35.645,-44.434,-40.527,-58.105,0
1711990026.938,-24.902,-44.922,-39.551,-56.641,0
1711990026.942,-43.945,-47.363,-38.574,-45.41,0
1711990026.946,-60.547,-48.34,-38.574,-29.785,0
1711990026.95,-27.344,-42.48,-33.203,-22.949,0
1711990026.954,5.371,-37.109,-24.902,-24.414,0
1711990026.958,-17.578,-32.715,-25.879,-23.438,0
1711990026.962,-26.367,-32.227,-24.902,-23.926,0
1711990026.966,-15.625,-39.551,-27.344,-19.531,0
1711990026.97,-17.09,-40.527,-31.25,-24.414,0
1711990026.974,-10.742,-41.992,-26.855,-34.18,0
1711990026.978,-20.02,-40.039,-28.809,-3.906,0
1711990026.981,-37.109,-39.062,-30.273,-8.301,0
1711990026.985,-31.738,-42.969,-35.156,-24.902,0
1711990026.989,-29.297,-40.527,-35.645,-33.691,0
1711990026.993,-26.367,-41.016,-36.621,-34.668,0
1711990026.997,-21.484,-51.27,-35.156,-30.273,0
1711990027.001,-3.906,-49.805,-28.809,-13.184,0
1711990027.005,-20.02,-40.527,-25.879,-2.441,0
1711990027.009,-26.367,-37.109,-24.414,-35.645,0
1711990027.013,-1.953,-32.227,-22.461,-34.668,0
1711990027.017,-9.277,-35.156,-21.484,-28.809,0
1711990027.021,-5.371,-39.062,-23.438,-28.809,0
1711990027.024,-10.742,-39.062,-23.926,-13.184,0
1711990027.028,-9.766,-34.668,-23.438,-11.23,0
1711990027.032,-1.465,-29.785,-21.973,-25.391,0
1711990027.036,-12.207,-35.156,-27.344,-12.695,0
1711990027.04,-18.555,-40.039,-32.715,0.977,0
1711990027.044,-21.484,-35.645,-26.855,-14.648,0
1711990027.048,-19.531,-37.109,-24.414,6.348,0
1711990027.052,5.371,-37.598,-25.391,-20.996,0
1711990027.056,-20.02,-37.109,-27.344,-27.344,0
1711990027.06,-23.438,-31.25,-28.32,-18.555,0
1711990027.064,-10.742,-25.879,-26.367,-20.508,0
1711990027.068,-0.977,-33.691,-24.414,-17.09,0
1711990027.071,15.625,-33.691,-30.273,-29.297,0
1711990027.075,-26.367,-32.715,-34.668,-27.832,0
1711990027.079,-43.945,-39.062,-40.039,-37.598,0
1711990027.083,-23.438,-40.039,-35.156,-23.926,0
1711990027.087,-18.555,-36.621,-29.297,-34.668,0
1711990027.091,11.23,-32.715,-29.297,-33.691,0
1711990027.095,-24.902,-34.18,-27.832,-20.02,0
1711990027.099,-61.523,-41.016,-27.832,-42.48,0
1711990027.103,-45.898,-37.598,-24.414,-34.18,0
1711990027.107,-27.344,-35.156,-25.391,-6.836,0
1711990027.111,1.953,-37.598,-30.273,-18.066,0
1711990027.115,2.441,-33.691,-32.715,-31.738,0
1711990027.119,-14.16,-32.227,-24.414,-13.672,0
1711990027.122,-41.504,-38.086,-18.555,-23.926,0
1711990027.126,-61.035,-43.945,-13.672,-47.363,0
1711990027.13,-71.289,-43.457,-13.184,-53.711,0
1711990027.134,-53.711,-41.016,-21.973,-74.707,0
1711990027.138,-81.055,-41.992,-26.855,-88.379,0
1711990027.142,-104.98,-44.434,-24.902,-105.469,0
1711990027.146,-95.703,-43.457,-24.902,-109.863,0
1711990027.15,-92.285,-45.41,-27.344,-85.449,0
1711990027.154,-66.895,-40.039,-24.902,-46.875,0
1711990027.158,-48.828,-41.504,-24.902,-45.898,0
1711990027.162,-74.219,-42.969,-26.855,-86.426,0
1711990027.165,-62.988,-37.598,-24.414,-81.055,0
1711990027.169,-53.223,-36.621,-25.391,-51.758,0
1711990027.173,-64.941,-35.156,-25.391,-45.898,0
1711990027.177,-63.477,-39.062,-21.973,-28.32,0
1711990027.181,-49.805,-37.109,-25.879,-28.32,0
1711990027.185,-60.547,-37.598,-34.18,-40.039,0
1711990027.189,-51.27,-41.504,-31.738,-46.875,0
1711990027.193,-44.922,-43.457,-31.738,-34.668,0
1711990027.197,-54.688,-48.34,-38.086,-35.156,0
1711990027.201,-56.641,-45.41,-35.645,-41.992,0
1711990027.205,-29.785,-41.016,-34.668,-28.32,0
1711990027.209,-27.832,-43.945,-36.133,-28.809,0
1711990027.212,-41.992,-45.898,-37.598,-30.762,0
1711990027.216,-43.945,-43.457,-37.109,-18.066,0
1711990027.22,-54.688,-41.992,-33.691,-22.461,0
1711990027.224,-47.852,-40.039,-34.18,-47.852,0
1711990027.228,-32.715,-37.598,-34.668,-37.598,0
1711990027.232,-32.227,-35.156,-30.762,-20.02,0
1711990027.236,-34.18,-33.203,-24.414,-16.113,0
1711990027.24,-25.391,-28.32,-20.996,-2.93,0
1711990027.244,-18.555,-25.391,-18.066,-24.414,0
1711990027.248,-24.902,-27.344,-21.484,-34.18,0
1711990027.252,-6.836,-27.344,-23.926,-15.625,0
1711990027.256,13.184,-31.738,-23.926,-8.301,0
1711990027.259,-22.949,-35.156,-24.414,-29.297,0
1711990027.263,-29.297,-36.621,-24.414,-24.414,0
1711990027.267,-6.836,-38.086,-24.902,-15.625,0
1711990027.271,-26.367,-38.086,-26.855,-34.668,0
1711990027.275,-23.926,-36.133,-30.762,-22.949,0
1711990027.279,-12.695,-39.551,-28.809,-13.184,0
1711990027.283,-34.18,-42.48,-30.762,-27.832,0
1711990027.287,-32.715,-40.527,-39.551,-46.387,0
1711990027.291,-17.578,-40.527,-43.945,-33.691,0
1711990027.295,-18.555,-40.527,-44.922,-24.414,0
1711990027.299,-45.41,-38.574,-42.969,-25.391,0
1711990027.302,-42.48,-41.504,-37.109,-16.113,0
1711990027.306,-27.832,-45.898,-34.668,-23.438,0
1711990027.31,-15.625,-42.969,-40.527,-33.691,0
1711990027.314,-17.09,-37.109,-41.016,-37.109,0
1711990027.318,-24.902,-37.598,-38.574,-8.301,0
1711990027.322,-25.391,-38.086,-37.109,4.883,0
1711990027.326,-32.715,-35.156,-35.645,-31.738,0
1711990027.33,-40.527,-39.551,-32.715,-49.805,0
1711990027.334,-21.973,-40.527,-32.715,-34.668,0
1711990027.338,-12.207,-38.574,-35.645,-40.527,0
1711990027.342,-39.062,-41.504,-34.668,-26.855,0
1711990027.345,-50.781,-41.504,-27.344,-8.301,0
1711990027.349,-21.973,-38.574,-25.879,-23.926,0
1711990027.353,0.977,-34.18,-24.414,-33.203,0
1711990027.357,-38.086,-34.668,-22.949,-25.391,0
1711990027.361,-54.199,-37.598,-26.855,-36.133,0
1711990027.365,-35.645,-33.203,-26.855,-43.457,0
1711990027.369,-38.574,-38.574,-27.832,-33.691,0
1711990027.373,-26.367,-38.574,-26.855,-27.344,0
1711990027.377,-16.602,-31.25,-31.25,-39.062,0
1711990027.381,-26.855,-28.32,-32.715,-43.945,0
1711990027.385,-17.09,-27.832,-25.879,-5.859,0
1711990027.388,-19.043,-29.785,-25.879,0,0
1711990027.392,-27.832,-32.227,-32.715,-50.781,0
1711990027.396,-20.996,-30.273,-29.785,-58.105,0
1711990027.4,-21.973,-29.297,-22.949,-24.902,0
1711990027.404,-20.02,-34.18,-21.973,-23.438,0
1711990027.408,-33.203,-35.156,-20.508,-38.574,0
1711990027.412,-42.48,-30.273,-22.949,-32.227,0
1711990027.416,-51.27,-31.25,-26.855,-30.273,0
1711990027.42,-45.41,-33.203,-16.602,-39.062,0
1711990027.424,-43.945,-24.414,-18.555,-40.527,0
1711990027.427,-67.383,-21.484,-28.32,-40.527,0
1711990027.431,-77.637,-14.16,-20.508,-65.43,0
1711990027.435,-76.172,-12.207,-13.672,-81.055,0
1711990027.439,-77.148,-13.672,-20.02,-94.727,0
1711990027.443,-113.77,-7.812,-24.414,-108.398,0
1711990027.447,-143.555,-3.906,-22.949,-119.141,0
1711990027.451,-135.254,5.371,-15.137,-128.418,0
